
# From lspdd.org
# 
# Name: DEL Dals LEDPNL08 Domestique
# Indice spectral Valeur 
# MSI 0.30 
# SLI 0.52 
# IPI 0.66 
# Pourcentage de bleu 19.9 
# Caractéristique Valeur 
# CCT calculée (K) 2842 
# CCT du fabricant (K) 3000 
# Tension (V) 12 
# Puissance (W) ND 
# Efficacité lumineuse (Lum/W) ND 
#
# Image: '/app/system/img_1s/2697/medium_image1.JPG?1464613239'
# 

  273.00  0.0000E+000  
  273.50  0.0000E+000  
  274.00  0.0000E+000  
  274.50  0.0000E+000  
  275.00  0.0000E+000  
  275.50  0.0000E+000  
  276.00  0.0000E+000  
  276.50  0.0000E+000  
  277.00  0.0000E+000  
  277.50  0.0000E+000  
  278.00  0.0000E+000  
  278.50  0.0000E+000  
  279.00  0.0000E+000  
  279.50  0.0000E+000  
  280.00  0.0000E+000  
  280.50  0.0000E+000  
  281.00  0.0000E+000  
  281.50  0.0000E+000  
  282.00  0.0000E+000  
  282.50  0.0000E+000  
  283.00  0.0000E+000  
  283.50  0.0000E+000  
  284.00  0.0000E+000  
  284.50  0.0000E+000  
  285.00  0.0000E+000  
  285.50  0.0000E+000  
  286.00  0.0000E+000  
  286.50  0.0000E+000  
  287.00  0.0000E+000  
  287.50  0.0000E+000  
  288.00  0.0000E+000  
  288.50  0.0000E+000  
  289.00  0.0000E+000  
  289.50  0.0000E+000  
  290.00  0.0000E+000  
  290.50  0.0000E+000  
  291.00  0.0000E+000  
  291.50  0.0000E+000  
  292.00  0.0000E+000  
  292.50  0.0000E+000  
  293.00  0.0000E+000  
  293.50  0.0000E+000  
  294.00  0.0000E+000  
  294.50  0.0000E+000  
  295.00  0.0000E+000  
  295.50  0.0000E+000  
  296.00  0.0000E+000  
  296.50  0.0000E+000  
  297.00  0.0000E+000  
  297.50  0.0000E+000  
  298.00  0.0000E+000  
  298.50  0.0000E+000  
  299.00  0.0000E+000  
  299.50  0.0000E+000  
  300.00  0.0000E+000  
  300.50  0.0000E+000  
  301.00  0.0000E+000  
  301.50  0.0000E+000  
  302.00  0.0000E+000  
  302.50  0.0000E+000  
  303.00  0.0000E+000  
  303.50  0.0000E+000  
  304.00  0.0000E+000  
  304.50  0.0000E+000  
  305.00  0.0000E+000  
  305.50  0.0000E+000  
  306.00  0.0000E+000  
  306.50  0.0000E+000  
  307.00  0.0000E+000  
  307.50  0.0000E+000  
  308.00  0.0000E+000  
  308.50  0.0000E+000  
  309.00  7.1953E-006  
  309.50  7.3960E-005  
  310.00  7.6622E-005  
  310.50  2.0181E-005  
  311.00  0.0000E+000  
  311.50  0.0000E+000  
  312.00  0.0000E+000  
  312.50  0.0000E+000  
  313.00  0.0000E+000  
  313.50  0.0000E+000  
  314.00  0.0000E+000  
  314.50  0.0000E+000  
  315.00  0.0000E+000  
  315.50  0.0000E+000  
  316.00  0.0000E+000  
  316.50  0.0000E+000  
  317.00  0.0000E+000  
  317.50  7.1087E-007  
  318.00  3.8490E-005  
  318.50  1.1415E-004  
  319.00  1.3818E-004  
  319.50  1.5428E-004  
  320.00  7.4440E-005  
  320.50  0.0000E+000  
  321.00  0.0000E+000  
  321.50  0.0000E+000  
  322.00  0.0000E+000  
  322.50  0.0000E+000  
  323.00  0.0000E+000  
  323.50  0.0000E+000  
  324.00  0.0000E+000  
  324.50  0.0000E+000  
  325.00  0.0000E+000  
  325.50  0.0000E+000  
  326.00  0.0000E+000  
  326.50  0.0000E+000  
  327.00  0.0000E+000  
  327.50  0.0000E+000  
  328.00  1.2483E-005  
  328.50  9.7174E-005  
  329.00  6.8134E-005  
  329.50  6.2916E-006  
  330.00  0.0000E+000  
  330.50  0.0000E+000  
  331.00  0.0000E+000  
  331.50  0.0000E+000  
  332.00  0.0000E+000  
  332.50  0.0000E+000  
  333.00  0.0000E+000  
  333.50  0.0000E+000  
  334.00  0.0000E+000  
  334.50  0.0000E+000  
  335.00  0.0000E+000  
  335.50  2.5992E-005  
  336.00  6.1089E-005  
  336.50  2.6441E-005  
  337.00  5.6528E-005  
  337.50  4.3351E-005  
  338.00  7.3007E-006  
  338.50  0.0000E+000  
  339.00  0.0000E+000  
  339.50  0.0000E+000  
  340.00  0.0000E+000  
  340.50  0.0000E+000  
  341.00  0.0000E+000  
  341.50  2.2216E-006  
  342.00  2.6712E-006  
  342.50  0.0000E+000  
  343.00  0.0000E+000  
  343.50  0.0000E+000  
  344.00  0.0000E+000  
  344.50  0.0000E+000  
  345.00  0.0000E+000  
  345.50  0.0000E+000  
  346.00  0.0000E+000  
  346.50  0.0000E+000  
  347.00  0.0000E+000  
  347.50  0.0000E+000  
  348.00  0.0000E+000  
  348.50  0.0000E+000  
  349.00  0.0000E+000  
  349.50  0.0000E+000  
  350.00  9.8351E-005  
  350.50  6.7758E-005  
  351.00  0.0000E+000  
  351.50  0.0000E+000  
  352.00  0.0000E+000  
  352.50  5.8423E-006  
  353.00  1.9581E-005  
  353.50  9.5835E-006  
  354.00  0.0000E+000  
  354.50  1.4773E-006  
  355.00  1.0508E-006  
  355.50  3.7156E-005  
  356.00  2.5166E-005  
  356.50  1.9821E-006  
  357.00  0.0000E+000  
  357.50  0.0000E+000  
  358.00  0.0000E+000  
  358.50  0.0000E+000  
  359.00  0.0000E+000  
  359.50  0.0000E+000  
  360.00  0.0000E+000  
  360.50  0.0000E+000  
  361.00  0.0000E+000  
  361.50  0.0000E+000  
  362.00  8.7982E-006  
  362.50  4.8540E-005  
  363.00  6.6953E-005  
  363.50  1.0908E-004  
  364.00  9.7386E-005  
  364.50  6.9665E-005  
  365.00  7.3690E-005  
  365.50  1.7125E-005  
  366.00  3.8192E-005  
  366.50  3.5378E-005  
  367.00  0.0000E+000  
  367.50  0.0000E+000  
  368.00  0.0000E+000  
  368.50  8.5391E-006  
  369.00  6.0847E-005  
  369.50  6.4867E-005  
  370.00  3.3123E-005  
  370.50  2.8552E-005  
  371.00  1.1238E-006  
  371.50  0.0000E+000  
  372.00  0.0000E+000  
  372.50  0.0000E+000  
  373.00  0.0000E+000  
  373.50  0.0000E+000  
  374.00  0.0000E+000  
  374.50  0.0000E+000  
  375.00  0.0000E+000  
  375.50  0.0000E+000  
  376.00  0.0000E+000  
  376.50  0.0000E+000  
  377.00  0.0000E+000  
  377.50  0.0000E+000  
  378.00  2.7651E-005  
  378.50  6.1765E-006  
  379.00  4.0201E-005  
  379.50  5.6553E-005  
  380.00  3.7785E-005  
  380.50  4.0366E-005  
  381.00  7.7691E-006  
  381.50  0.0000E+000  
  382.00  0.0000E+000  
  382.50  2.1993E-005  
  383.00  1.1772E-004  
  383.50  1.4554E-004  
  384.00  1.3863E-004  
  384.50  6.5513E-005  
  385.00  1.0676E-005  
  385.50  2.2302E-005  
  386.00  1.5395E-006  
  386.50  0.0000E+000  
  387.00  0.0000E+000  
  387.50  0.0000E+000  
  388.00  0.0000E+000  
  388.50  0.0000E+000  
  389.00  0.0000E+000  
  389.50  5.8407E-005  
  390.00  8.1634E-005  
  390.50  5.0612E-005  
  391.00  1.6059E-005  
  391.50  0.0000E+000  
  392.00  4.2184E-006  
  392.50  6.9129E-005  
  393.00  1.4022E-004  
  393.50  1.9674E-004  
  394.00  1.9500E-004  
  394.50  1.2638E-004  
  395.00  8.6012E-005  
  395.50  8.4112E-005  
  396.00  1.3452E-004  
  396.50  1.8620E-004  
  397.00  2.2890E-004  
  397.50  2.1147E-004  
  398.00  2.2209E-004  
  398.50  2.1000E-004  
  399.00  1.5807E-004  
  399.50  6.9239E-005  
  400.00  3.3535E-005  
  400.50  9.9951E-005  
  401.00  1.1749E-004  
  401.50  1.4445E-004  
  402.00  1.1788E-004  
  402.50  7.2725E-005  
  403.00  9.8432E-005  
  403.50  1.4825E-004  
  404.00  2.1729E-004  
  404.50  2.6329E-004  
  405.00  2.9502E-004  
  405.50  2.8674E-004  
  406.00  2.2820E-004  
  406.50  1.9766E-004  
  407.00  1.3496E-004  
  407.50  8.2220E-005  
  408.00  1.3417E-004  
  408.50  1.6307E-004  
  409.00  1.8566E-004  
  409.50  1.9021E-004  
  410.00  1.7440E-004  
  410.50  1.4024E-004  
  411.00  8.5477E-005  
  411.50  1.0708E-004  
  412.00  1.7831E-004  
  412.50  2.3279E-004  
  413.00  2.8480E-004  
  413.50  2.5283E-004  
  414.00  2.7500E-004  
  414.50  3.3193E-004  
  415.00  3.9711E-004  
  415.50  4.2211E-004  
  416.00  3.9317E-004  
  416.50  3.9922E-004  
  417.00  4.0978E-004  
  417.50  4.4691E-004  
  418.00  4.9527E-004  
  418.50  4.5714E-004  
  419.00  4.9766E-004  
  419.50  5.6668E-004  
  420.00  6.4633E-004  
  420.50  7.4060E-004  
  421.00  7.1865E-004  
  421.50  7.3496E-004  
  422.00  8.3059E-004  
  422.50  9.3451E-004  
  423.00  1.1007E-003  
  423.50  1.2530E-003  
  424.00  1.3279E-003  
  424.50  1.4410E-003  
  425.00  1.4858E-003  
  425.50  1.4892E-003  
  426.00  1.5533E-003  
  426.50  1.6273E-003  
  427.00  1.7598E-003  
  427.50  1.9250E-003  
  428.00  2.0801E-003  
  428.50  2.2304E-003  
  429.00  2.3525E-003  
  429.50  2.4853E-003  
  430.00  2.6353E-003  
  430.50  2.7759E-003  
  431.00  2.9086E-003  
  431.50  3.0505E-003  
  432.00  3.2069E-003  
  432.50  3.3975E-003  
  433.00  3.5743E-003  
  433.50  3.7908E-003  
  434.00  3.9575E-003  
  434.50  4.1852E-003  
  435.00  4.4047E-003  
  435.50  4.6387E-003  
  436.00  4.9735E-003  
  436.50  5.3073E-003  
  437.00  5.7183E-003  
  437.50  6.0971E-003  
  438.00  6.4688E-003  
  438.50  6.9140E-003  
  439.00  7.3926E-003  
  439.50  7.9291E-003  
  440.00  8.4286E-003  
  440.50  8.9154E-003  
  441.00  9.4551E-003  
  441.50  9.9906E-003  
  442.00  1.0583E-002  
  442.50  1.1206E-002  
  443.00  1.1918E-002  
  443.50  1.2679E-002  
  444.00  1.3425E-002  
  444.50  1.4165E-002  
  445.00  1.4849E-002  
  445.50  1.5613E-002  
  446.00  1.6254E-002  
  446.50  1.6858E-002  
  447.00  1.7435E-002  
  447.50  1.7981E-002  
  448.00  1.8513E-002  
  448.50  1.8983E-002  
  449.00  1.9461E-002  
  449.50  1.9911E-002  
  450.00  2.0132E-002  
  450.50  2.0314E-002  
  451.00  2.0335E-002  
  451.50  2.0260E-002  
  452.00  2.0247E-002  
  452.50  2.0255E-002  
  453.00  2.0278E-002  
  453.50  2.0185E-002  
  454.00  1.9882E-002  
  454.50  1.9441E-002  
  455.00  1.8964E-002  
  455.50  1.8526E-002  
  456.00  1.8124E-002  
  456.50  1.7734E-002  
  457.00  1.7379E-002  
  457.50  1.6995E-002  
  458.00  1.6587E-002  
  458.50  1.6269E-002  
  459.00  1.5993E-002  
  459.50  1.5773E-002  
  460.00  1.5605E-002  
  460.50  1.5357E-002  
  461.00  1.5130E-002  
  461.50  1.4909E-002  
  462.00  1.4750E-002  
  462.50  1.4594E-002  
  463.00  1.4431E-002  
  463.50  1.4203E-002  
  464.00  1.3995E-002  
  464.50  1.3813E-002  
  465.00  1.3654E-002  
  465.50  1.3416E-002  
  466.00  1.3178E-002  
  466.50  1.3012E-002  
  467.00  1.2908E-002  
  467.50  1.2875E-002  
  468.00  1.2748E-002  
  468.50  1.2523E-002  
  469.00  1.2256E-002  
  469.50  1.2017E-002  
  470.00  1.1899E-002  
  470.50  1.1774E-002  
  471.00  1.1541E-002  
  471.50  1.1268E-002  
  472.00  1.1062E-002  
  472.50  1.0915E-002  
  473.00  1.0754E-002  
  473.50  1.0576E-002  
  474.00  1.0365E-002  
  474.50  1.0264E-002  
  475.00  1.0196E-002  
  475.50  1.0112E-002  
  476.00  1.0050E-002  
  476.50  1.0006E-002  
  477.00  9.9300E-003  
  477.50  9.8480E-003  
  478.00  9.8226E-003  
  478.50  9.7939E-003  
  479.00  9.8529E-003  
  479.50  9.8822E-003  
  480.00  9.8922E-003  
  480.50  9.9361E-003  
  481.00  9.9300E-003  
  481.50  9.9852E-003  
  482.00  9.9990E-003  
  482.50  1.0031E-002  
  483.00  1.0062E-002  
  483.50  1.0182E-002  
  484.00  1.0318E-002  
  484.50  1.0421E-002  
  485.00  1.0459E-002  
  485.50  1.0520E-002  
  486.00  1.0589E-002  
  486.50  1.0731E-002  
  487.00  1.0870E-002  
  487.50  1.1000E-002  
  488.00  1.1153E-002  
  488.50  1.1267E-002  
  489.00  1.1399E-002  
  489.50  1.1524E-002  
  490.00  1.1636E-002  
  490.50  1.1742E-002  
  491.00  1.1869E-002  
  491.50  1.2030E-002  
  492.00  1.2207E-002  
  492.50  1.2391E-002  
  493.00  1.2582E-002  
  493.50  1.2816E-002  
  494.00  1.3004E-002  
  494.50  1.3215E-002  
  495.00  1.3410E-002  
  495.50  1.3613E-002  
  496.00  1.3834E-002  
  496.50  1.3976E-002  
  497.00  1.4130E-002  
  497.50  1.4356E-002  
  498.00  1.4609E-002  
  498.50  1.4889E-002  
  499.00  1.5121E-002  
  499.50  1.5266E-002  
  500.00  1.5423E-002  
  500.50  1.5564E-002  
  501.00  1.5828E-002  
  501.50  1.6131E-002  
  502.00  1.6413E-002  
  502.50  1.6633E-002  
  503.00  1.6751E-002  
  503.50  1.6847E-002  
  504.00  1.6981E-002  
  504.50  1.7158E-002  
  505.00  1.7395E-002  
  505.50  1.7612E-002  
  506.00  1.7789E-002  
  506.50  1.7959E-002  
  507.00  1.8163E-002  
  507.50  1.8336E-002  
  508.00  1.8482E-002  
  508.50  1.8637E-002  
  509.00  1.8816E-002  
  509.50  1.8987E-002  
  510.00  1.9163E-002  
  510.50  1.9327E-002  
  511.00  1.9525E-002  
  511.50  1.9713E-002  
  512.00  1.9850E-002  
  512.50  2.0002E-002  
  513.00  2.0132E-002  
  513.50  2.0252E-002  
  514.00  2.0385E-002  
  514.50  2.0468E-002  
  515.00  2.0560E-002  
  515.50  2.0648E-002  
  516.00  2.0770E-002  
  516.50  2.0956E-002  
  517.00  2.1117E-002  
  517.50  2.1235E-002  
  518.00  2.1329E-002  
  518.50  2.1466E-002  
  519.00  2.1613E-002  
  519.50  2.1781E-002  
  520.00  2.1896E-002  
  520.50  2.1968E-002  
  521.00  2.2051E-002  
  521.50  2.2172E-002  
  522.00  2.2317E-002  
  522.50  2.2506E-002  
  523.00  2.2683E-002  
  523.50  2.2813E-002  
  524.00  2.2937E-002  
  524.50  2.3057E-002  
  525.00  2.3210E-002  
  525.50  2.3305E-002  
  526.00  2.3337E-002  
  526.50  2.3335E-002  
  527.00  2.3449E-002  
  527.50  2.3624E-002  
  528.00  2.3813E-002  
  528.50  2.3945E-002  
  529.00  2.4043E-002  
  529.50  2.4194E-002  
  530.00  2.4333E-002  
  530.50  2.4491E-002  
  531.00  2.4602E-002  
  531.50  2.4780E-002  
  532.00  2.4948E-002  
  532.50  2.5041E-002  
  533.00  2.5107E-002  
  533.50  2.5211E-002  
  534.00  2.5363E-002  
  534.50  2.5555E-002  
  535.00  2.5751E-002  
  535.50  2.5970E-002  
  536.00  2.6155E-002  
  536.50  2.6277E-002  
  537.00  2.6371E-002  
  537.50  2.6506E-002  
  538.00  2.6666E-002  
  538.50  2.6794E-002  
  539.00  2.6906E-002  
  539.50  2.7005E-002  
  540.00  2.7213E-002  
  540.50  2.7420E-002  
  541.00  2.7596E-002  
  541.50  2.7754E-002  
  542.00  2.7929E-002  
  542.50  2.8163E-002  
  543.00  2.8370E-002  
  543.50  2.8511E-002  
  544.00  2.8610E-002  
  544.50  2.8802E-002  
  545.00  2.9066E-002  
  545.50  2.9383E-002  
  546.00  2.9559E-002  
  546.50  2.9618E-002  
  547.00  2.9701E-002  
  547.50  2.9852E-002  
  548.00  3.0123E-002  
  548.50  3.0393E-002  
  549.00  3.0660E-002  
  549.50  3.0917E-002  
  550.00  3.1109E-002  
  550.50  3.1249E-002  
  551.00  3.1365E-002  
  551.50  3.1513E-002  
  552.00  3.1702E-002  
  552.50  3.1932E-002  
  553.00  3.2152E-002  
  553.50  3.2361E-002  
  554.00  3.2572E-002  
  554.50  3.2772E-002  
  555.00  3.2965E-002  
  555.50  3.3108E-002  
  556.00  3.3293E-002  
  556.50  3.3571E-002  
  557.00  3.3863E-002  
  557.50  3.4076E-002  
  558.00  3.4219E-002  
  558.50  3.4449E-002  
  559.00  3.4720E-002  
  559.50  3.5045E-002  
  560.00  3.5336E-002  
  560.50  3.5544E-002  
  561.00  3.5761E-002  
  561.50  3.5998E-002  
  562.00  3.6255E-002  
  562.50  3.6575E-002  
  563.00  3.6844E-002  
  563.50  3.7096E-002  
  564.00  3.7284E-002  
  564.50  3.7441E-002  
  565.00  3.7644E-002  
  565.50  3.7866E-002  
  566.00  3.8124E-002  
  566.50  3.8329E-002  
  567.00  3.8551E-002  
  567.50  3.8781E-002  
  568.00  3.8976E-002  
  568.50  3.9135E-002  
  569.00  3.9306E-002  
  569.50  3.9534E-002  
  570.00  3.9789E-002  
  570.50  4.0050E-002  
  571.00  4.0241E-002  
  571.50  4.0503E-002  
  572.00  4.0746E-002  
  572.50  4.1055E-002  
  573.00  4.1357E-002  
  573.50  4.1655E-002  
  574.00  4.1943E-002  
  574.50  4.2199E-002  
  575.00  4.2415E-002  
  575.50  4.2626E-002  
  576.00  4.2850E-002  
  576.50  4.3089E-002  
  577.00  4.3409E-002  
  577.50  4.3711E-002  
  578.00  4.3945E-002  
  578.50  4.4120E-002  
  579.00  4.4233E-002  
  579.50  4.4429E-002  
  580.00  4.4696E-002  
  580.50  4.5089E-002  
  581.00  4.5453E-002  
  581.50  4.5717E-002  
  582.00  4.5910E-002  
  582.50  4.6074E-002  
  583.00  4.6341E-002  
  583.50  4.6552E-002  
  584.00  4.6785E-002  
  584.50  4.6957E-002  
  585.00  4.7102E-002  
  585.50  4.7303E-002  
  586.00  4.7636E-002  
  586.50  4.7927E-002  
  587.00  4.8173E-002  
  587.50  4.8351E-002  
  588.00  4.8504E-002  
  588.50  4.8733E-002  
  589.00  4.8837E-002  
  589.50  4.8968E-002  
  590.00  4.9135E-002  
  590.50  4.9381E-002  
  591.00  4.9634E-002  
  591.50  4.9884E-002  
  592.00  5.0045E-002  
  592.50  5.0180E-002  
  593.00  5.0298E-002  
  593.50  5.0344E-002  
  594.00  5.0544E-002  
  594.50  5.0799E-002  
  595.00  5.1077E-002  
  595.50  5.1158E-002  
  596.00  5.1162E-002  
  596.50  5.1223E-002  
  597.00  5.1302E-002  
  597.50  5.1435E-002  
  598.00  5.1555E-002  
  598.50  5.1774E-002  
  599.00  5.1964E-002  
  599.50  5.2005E-002  
  600.00  5.1952E-002  
  600.50  5.1914E-002  
  601.00  5.1886E-002  
  601.50  5.1886E-002  
  602.00  5.1963E-002  
  602.50  5.2145E-002  
  603.00  5.2397E-002  
  603.50  5.2434E-002  
  604.00  5.2311E-002  
  604.50  5.2091E-002  
  605.00  5.1994E-002  
  605.50  5.2022E-002  
  606.00  5.2030E-002  
  606.50  5.2088E-002  
  607.00  5.2110E-002  
  607.50  5.2195E-002  
  608.00  5.2148E-002  
  608.50  5.2070E-002  
  609.00  5.1880E-002  
  609.50  5.1743E-002  
  610.00  5.1624E-002  
  610.50  5.1477E-002  
  611.00  5.1353E-002  
  611.50  5.1372E-002  
  612.00  5.1497E-002  
  612.50  5.1495E-002  
  613.00  5.1292E-002  
  613.50  5.1033E-002  
  614.00  5.0821E-002  
  614.50  5.0836E-002  
  615.00  5.0760E-002  
  615.50  5.0769E-002  
  616.00  5.0554E-002  
  616.50  5.0323E-002  
  617.00  5.0017E-002  
  617.50  4.9855E-002  
  618.00  4.9726E-002  
  618.50  4.9696E-002  
  619.00  4.9612E-002  
  619.50  4.9592E-002  
  620.00  4.9451E-002  
  620.50  4.9274E-002  
  621.00  4.9003E-002  
  621.50  4.8737E-002  
  622.00  4.8481E-002  
  622.50  4.8172E-002  
  623.00  4.7922E-002  
  623.50  4.7719E-002  
  624.00  4.7522E-002  
  624.50  4.7370E-002  
  625.00  4.7184E-002  
  625.50  4.6986E-002  
  626.00  4.6715E-002  
  626.50  4.6375E-002  
  627.00  4.6126E-002  
  627.50  4.5906E-002  
  628.00  4.5690E-002  
  628.50  4.5365E-002  
  629.00  4.5028E-002  
  629.50  4.4758E-002  
  630.00  4.4610E-002  
  630.50  4.4461E-002  
  631.00  4.4238E-002  
  631.50  4.4020E-002  
  632.00  4.3792E-002  
  632.50  4.3595E-002  
  633.00  4.3390E-002  
  633.50  4.3113E-002  
  634.00  4.2824E-002  
  634.50  4.2468E-002  
  635.00  4.2101E-002  
  635.50  4.1735E-002  
  636.00  4.1347E-002  
  636.50  4.1101E-002  
  637.00  4.0933E-002  
  637.50  4.0783E-002  
  638.00  4.0504E-002  
  638.50  4.0154E-002  
  639.00  3.9774E-002  
  639.50  3.9436E-002  
  640.00  3.9101E-002  
  640.50  3.8789E-002  
  641.00  3.8520E-002  
  641.50  3.8264E-002  
  642.00  3.8004E-002  
  642.50  3.7680E-002  
  643.00  3.7289E-002  
  643.50  3.6930E-002  
  644.00  3.6636E-002  
  644.50  3.6276E-002  
  645.00  3.5773E-002  
  645.50  3.5235E-002  
  646.00  3.4862E-002  
  646.50  3.4676E-002  
  647.00  3.4520E-002  
  647.50  3.4232E-002  
  648.00  3.3859E-002  
  648.50  3.3543E-002  
  649.00  3.3328E-002  
  649.50  3.3038E-002  
  650.00  3.2673E-002  
  650.50  3.2297E-002  
  651.00  3.1843E-002  
  651.50  3.1458E-002  
  652.00  3.1148E-002  
  652.50  3.0820E-002  
  653.00  3.0487E-002  
  653.50  3.0067E-002  
  654.00  2.9846E-002  
  654.50  2.9589E-002  
  655.00  2.9282E-002  
  655.50  2.8899E-002  
  656.00  2.8508E-002  
  656.50  2.8169E-002  
  657.00  2.7847E-002  
  657.50  2.7507E-002  
  658.00  2.7168E-002  
  658.50  2.6854E-002  
  659.00  2.6445E-002  
  659.50  2.6103E-002  
  660.00  2.5787E-002  
  660.50  2.5551E-002  
  661.00  2.5148E-002  
  661.50  2.4792E-002  
  662.00  2.4454E-002  
  662.50  2.4225E-002  
  663.00  2.3934E-002  
  663.50  2.3649E-002  
  664.00  2.3373E-002  
  664.50  2.3023E-002  
  665.00  2.2705E-002  
  665.50  2.2426E-002  
  666.00  2.2171E-002  
  666.50  2.1847E-002  
  667.00  2.1522E-002  
  667.50  2.1192E-002  
  668.00  2.0889E-002  
  668.50  2.0604E-002  
  669.00  2.0286E-002  
  669.50  1.9950E-002  
  670.00  1.9582E-002  
  670.50  1.9334E-002  
  671.00  1.9212E-002  
  671.50  1.9048E-002  
  672.00  1.8832E-002  
  672.50  1.8528E-002  
  673.00  1.8183E-002  
  673.50  1.7908E-002  
  674.00  1.7610E-002  
  674.50  1.7357E-002  
  675.00  1.7113E-002  
  675.50  1.7000E-002  
  676.00  1.6859E-002  
  676.50  1.6602E-002  
  677.00  1.6212E-002  
  677.50  1.5874E-002  
  678.00  1.5636E-002  
  678.50  1.5364E-002  
  679.00  1.5151E-002  
  679.50  1.4891E-002  
  680.00  1.4723E-002  
  680.50  1.4550E-002  
  681.00  1.4383E-002  
  681.50  1.4090E-002  
  682.00  1.3742E-002  
  682.50  1.3502E-002  
  683.00  1.3369E-002  
  683.50  1.3226E-002  
  684.00  1.3027E-002  
  684.50  1.2769E-002  
  685.00  1.2566E-002  
  685.50  1.2395E-002  
  686.00  1.2243E-002  
  686.50  1.2015E-002  
  687.00  1.1883E-002  
  687.50  1.1710E-002  
  688.00  1.1552E-002  
  688.50  1.1271E-002  
  689.00  1.1016E-002  
  689.50  1.0818E-002  
  690.00  1.0630E-002  
  690.50  1.0606E-002  
  691.00  1.0500E-002  
  691.50  1.0424E-002  
  692.00  1.0226E-002  
  692.50  9.9997E-003  
  693.00  9.7223E-003  
  693.50  9.5468E-003  
  694.00  9.4998E-003  
  694.50  9.4937E-003  
  695.00  9.3751E-003  
  695.50  9.1459E-003  
  696.00  8.9191E-003  
  696.50  8.7925E-003  
  697.00  8.7040E-003  
  697.50  8.6101E-003  
  698.00  8.4439E-003  
  698.50  8.3106E-003  
  699.00  8.1748E-003  
  699.50  7.9737E-003  
  700.00  7.7429E-003  
  700.50  7.5448E-003  
  701.00  7.4205E-003  
  701.50  7.3317E-003  
  702.00  7.2081E-003  
  702.50  7.1357E-003  
  703.00  7.0559E-003  
  703.50  7.0631E-003  
  704.00  6.9979E-003  
  704.50  6.8222E-003  
  705.00  6.6808E-003  
  705.50  6.6215E-003  
  706.00  6.5635E-003  
  706.50  6.4473E-003  
  707.00  6.3205E-003  
  707.50  6.1759E-003  
  708.00  6.0898E-003  
  708.50  6.0488E-003  
  709.00  6.0602E-003  
  709.50  5.9561E-003  
  710.00  5.7627E-003  
  710.50  5.6199E-003  
  711.00  5.4806E-003  
  711.50  5.3400E-003  
  712.00  5.1728E-003  
  712.50  5.1068E-003  
  713.00  5.0821E-003  
  713.50  5.0106E-003  
  714.00  4.9014E-003  
  714.50  4.8649E-003  
  715.00  4.8238E-003  
  715.50  4.8203E-003  
  716.00  4.6246E-003  
  716.50  4.4223E-003  
  717.00  4.3033E-003  
  717.50  4.2502E-003  
  718.00  4.2756E-003  
  718.50  4.2759E-003  
  719.00  4.2528E-003  
  719.50  4.1586E-003  
  720.00  4.0208E-003  
  720.50  3.8711E-003  
  721.00  3.7393E-003  
  721.50  3.6827E-003  
  722.00  3.6012E-003  
  722.50  3.5138E-003  
  723.00  3.4282E-003  
  723.50  3.4972E-003  
  724.00  3.4717E-003  
  724.50  3.3182E-003  
  725.00  3.1272E-003  
  725.50  3.0870E-003  
  726.00  3.1919E-003  
  726.50  3.1901E-003  
  727.00  3.1296E-003  
  727.50  3.0447E-003  
  728.00  2.9979E-003  
  728.50  2.8736E-003  
  729.00  2.8133E-003  
  729.50  2.7291E-003  
  730.00  2.7275E-003  
  730.50  2.7218E-003  
  731.00  2.7036E-003  
  731.50  2.7874E-003  
  732.00  2.7684E-003  
  732.50  2.7731E-003  
  733.00  2.6879E-003  
  733.50  2.6263E-003  
  734.00  2.5740E-003  
  734.50  2.5672E-003  
  735.00  2.5077E-003  
  735.50  2.3215E-003  
  736.00  2.1425E-003  
  736.50  2.1096E-003  
  737.00  2.1275E-003  
  737.50  2.1234E-003  
  738.00  2.1477E-003  
  738.50  2.2204E-003  
  739.00  2.1678E-003  
  739.50  2.1183E-003  
  740.00  2.0104E-003  
  740.50  1.9603E-003  
  741.00  1.9405E-003  
  741.50  2.1011E-003  
  742.00  2.1035E-003  
  742.50  2.0006E-003  
  743.00  1.9755E-003  
  743.50  1.9381E-003  
  744.00  1.8937E-003  
  744.50  1.8612E-003  
  745.00  1.9127E-003  
  745.50  1.7738E-003  
  746.00  1.6470E-003  
  746.50  1.5426E-003  
  747.00  1.4879E-003  
  747.50  1.5008E-003  
  748.00  1.5387E-003  
  748.50  1.5223E-003  
  749.00  1.3583E-003  
  749.50  1.4551E-003  
  750.00  1.5192E-003  
  750.50  1.2905E-003  
  751.00  9.1366E-004  
  751.50  8.8115E-004  
  752.00  1.2343E-003  
  752.50  1.4219E-003  
  753.00  1.4102E-003  
  753.50  1.4487E-003  
  754.00  1.3239E-003  
  754.50  1.2523E-003  
  755.00  1.1710E-003  
  755.50  1.2535E-003  
  756.00  1.3476E-003  
  756.50  1.2869E-003  
  757.00  1.1465E-003  
  757.50  1.1888E-003  
  758.00  1.2558E-003  
  758.50  1.2647E-003  
  759.00  1.2758E-003  
  759.50  1.2236E-003  
  760.00  1.1313E-003  
  760.50  1.0251E-003  
  761.00  9.7399E-004  
  761.50  9.8868E-004  
  762.00  9.9736E-004  
  762.50  1.0863E-003  
  763.00  1.1890E-003  
  763.50  1.2697E-003  
  764.00  1.2672E-003  
  764.50  1.1382E-003  
  765.00  9.9104E-004  
  765.50  9.6526E-004  
  766.00  1.0074E-003  
  766.50  1.0324E-003  
  767.00  1.0781E-003  
  767.50  1.0987E-003  
  768.00  9.6137E-004  
  768.50  8.2543E-004  
  769.00  6.9828E-004  
  769.50  6.9927E-004  
  770.00  6.1696E-004  
  770.50  6.1774E-004  
  771.00  5.0690E-004  
  771.50  6.0093E-004  
  772.00  7.8534E-004  
  772.50  9.9004E-004  
  773.00  8.7629E-004  
  773.50  7.0430E-004  
  774.00  6.3665E-004  
  774.50  4.6079E-004  
  775.00  4.9831E-004  
  775.50  7.0826E-004  
  776.00  9.0712E-004  
  776.50  9.2157E-004  
  777.00  7.6873E-004  
  777.50  6.3028E-004  
  778.00  5.2898E-004  
  778.50  4.3865E-004  
  779.00  4.9645E-004  
  779.50  4.9177E-004  
  780.00  4.4742E-004  
  780.50  4.6621E-004  
  781.00  5.2027E-004  
  781.50  6.1599E-004  
  782.00  6.1851E-004  
  782.50  5.8708E-004  
  783.00  8.0823E-004  
  783.50  7.0388E-004  
  784.00  4.5375E-004  
  784.50  2.4761E-004  
  785.00  4.3283E-004  
  785.50  5.5282E-004  
  786.00  3.3168E-004  
  786.50  3.1210E-006  
  787.00  3.5246E-005  
  787.50  1.8846E-004  
  788.00  3.2146E-004  
  788.50  3.8339E-004  
  789.00  3.5989E-004  
  789.50  1.7437E-004  
  790.00  8.6345E-005  
  790.50  7.6127E-005  
  791.00  2.1049E-004  
  791.50  3.2262E-004  
  792.00  4.1403E-004  
  792.50  2.6444E-004  
  793.00  8.9987E-005  
  793.50  1.4438E-004  
  794.00  8.2473E-005  
  794.50  0.0000E+000  
  795.00  0.0000E+000  
  795.50  5.6494E-005  
  796.00  4.7774E-004  
  796.50  6.3299E-004  
  797.00  4.6095E-004  
  797.50  2.6005E-004  
  798.00  2.1133E-004  
  798.50  4.7540E-004  
  799.00  6.6452E-004  
  799.50  6.1457E-004  
  800.00  4.2351E-004  
  800.50  2.3872E-004  
  801.00  4.8755E-005  
  801.50  0.0000E+000  
  802.00  0.0000E+000  
  802.50  0.0000E+000  
  803.00  8.7251E-007  
  803.50  0.0000E+000  
  804.00  9.2349E-007  
  804.50  5.7870E-005  
  805.00  6.1552E-005  
  805.50  0.0000E+000  
  806.00  0.0000E+000  
  806.50  0.0000E+000  
  807.00  0.0000E+000  
  807.50  1.8868E-004  
  808.00  1.1740E-004  
  808.50  8.1929E-005  
  809.00  1.2439E-004  
  809.50  1.4173E-005  
  810.00  6.8892E-005  
  810.50  1.8125E-004  
  811.00  2.4974E-004  
  811.50  3.2675E-004  
  812.00  4.7030E-004  
  812.50  5.5459E-004  
  813.00  5.5936E-004  
  813.50  3.8086E-004  
  814.00  1.3806E-004  
  814.50  3.9850E-005  
  815.00  9.0170E-005  
  815.50  6.8572E-005  
  816.00  1.7604E-004  
  816.50  0.0000E+000  
  817.00  0.0000E+000  
  817.50  0.0000E+000  
  818.00  6.4307E-007  
  818.50  5.6509E-005  
  819.00  3.3577E-008  
  819.50  0.0000E+000  
  820.00  0.0000E+000  
  820.50  0.0000E+000  
  821.00  1.3875E-004  
  821.50  3.3378E-004  
  822.00  2.8571E-004  
  822.50  1.4259E-004  
  823.00  1.1519E-004  
  823.50  6.1739E-005  
  824.00  3.4133E-004  
  824.50  5.3864E-004  
  825.00  2.5371E-004  
  825.50  0.0000E+000  
  826.00  0.0000E+000  
  826.50  0.0000E+000  
  827.00  0.0000E+000  
  827.50  0.0000E+000  
  828.00  6.4361E-005  
  828.50  7.6172E-005  
  829.00  1.5140E-004  
  829.50  0.0000E+000  
  830.00  0.0000E+000  
  830.50  0.0000E+000  
  831.00  0.0000E+000  
  831.50  0.0000E+000  
  832.00  2.6318E-004  
  832.50  2.5047E-004  
  833.00  0.0000E+000  
  833.50  0.0000E+000  
  834.00  0.0000E+000  
  834.50  7.2693E-005  
  835.00  7.8641E-005  
  835.50  4.2998E-005  
  836.00  1.3165E-006  
  836.50  0.0000E+000  
  837.00  4.3326E-004  
  837.50  8.0602E-004  
  838.00  1.7148E-004  
  838.50  0.0000E+000  
  839.00  0.0000E+000  
  839.50  0.0000E+000  
  840.00  0.0000E+000  
  840.50  0.0000E+000  
  841.00  0.0000E+000  
  841.50  0.0000E+000  
  842.00  0.0000E+000  
  842.50  0.0000E+000  
  843.00  0.0000E+000  
  843.50  0.0000E+000  
  844.00  0.0000E+000  
  844.50  0.0000E+000  
  845.00  0.0000E+000  
  845.50  0.0000E+000  
  846.00  0.0000E+000  
  846.50  0.0000E+000  
  847.00  1.5872E-005  
  847.50  1.4966E-004  
  848.00  0.0000E+000  
  848.50  0.0000E+000  
  849.00  0.0000E+000  
  849.50  0.0000E+000  
  850.00  0.0000E+000  
  850.50  0.0000E+000  
  851.00  0.0000E+000  
  851.50  0.0000E+000  
  852.00  0.0000E+000  
  852.50  0.0000E+000  
  853.00  0.0000E+000  
  853.50  0.0000E+000  
  854.00  0.0000E+000  
  854.50  0.0000E+000  
  855.00  8.6435E-005  
  855.50  5.7939E-004  
  856.00  9.1892E-005  
  856.50  0.0000E+000  
  857.00  0.0000E+000  
  857.50  0.0000E+000  
  858.00  0.0000E+000  
  858.50  0.0000E+000  
  859.00  0.0000E+000  
  859.50  0.0000E+000  
  860.00  0.0000E+000  
  860.50  0.0000E+000  
  861.00  0.0000E+000  
  861.50  0.0000E+000  
  862.00  0.0000E+000  
  862.50  0.0000E+000  
  863.00  0.0000E+000  
  863.50  1.1125E-004  
  864.00  2.6281E-004  
  864.50  0.0000E+000  
  865.00  0.0000E+000  
  865.50  0.0000E+000  
  866.00  0.0000E+000  
  866.50  0.0000E+000  
  867.00  0.0000E+000  
  867.50  0.0000E+000  
  868.00  0.0000E+000  
  868.50  0.0000E+000  
  869.00  0.0000E+000  
  869.50  0.0000E+000  
  870.00  0.0000E+000  
  870.50  0.0000E+000  
  871.00  0.0000E+000  
  871.50  0.0000E+000  
  872.00  0.0000E+000  
  872.50  0.0000E+000  
  873.00  0.0000E+000  
  873.50  0.0000E+000  
  874.00  0.0000E+000  
  874.50  0.0000E+000  
  875.00  0.0000E+000  
  875.50  0.0000E+000  
  876.00  0.0000E+000  
  876.50  0.0000E+000  
  877.00  0.0000E+000  
  877.50  0.0000E+000  
  878.00  1.2302E-006  
  878.50  2.0501E-004  
  879.00  5.6624E-005  
  879.50  0.0000E+000  
  880.00  0.0000E+000  
  880.50  0.0000E+000  
  881.00  0.0000E+000  
  881.50  0.0000E+000  
  882.00  2.6682E-004  
  882.50  3.4274E-004  
  883.00  1.7295E-005  
  883.50  0.0000E+000  
  884.00  0.0000E+000  
  884.50  0.0000E+000  
  885.00  0.0000E+000  
  885.50  0.0000E+000  
  886.00  0.0000E+000  
  886.50  0.0000E+000  
  887.00  0.0000E+000  
  887.50  0.0000E+000  
  888.00  0.0000E+000  
  888.50  0.0000E+000  
  889.00  0.0000E+000  
  889.50  0.0000E+000  
  890.00  1.8434E-005  
  890.50  0.0000E+000  
  891.00  0.0000E+000  
  891.50  0.0000E+000  
  892.00  0.0000E+000  
  892.50  0.0000E+000  
  893.00  0.0000E+000  
  893.50  0.0000E+000  
  894.00  0.0000E+000  
  894.50  5.5916E-005  
  895.00  0.0000E+000  
  895.50  0.0000E+000  
  896.00  0.0000E+000  
  896.50  0.0000E+000  
  897.00  0.0000E+000  
  897.50  0.0000E+000  
  898.00  0.0000E+000  
  898.50  0.0000E+000  
  899.00  0.0000E+000  
  899.50  0.0000E+000  
