
# From lspdd.org
# 
# Name: DEL Dals SWIVLED12-4K Domestique
# Indice spectral Valeur 
# MSI 0.36 
# SLI 0.55 
# IPI 0.60 
# Pourcentage de bleu 23.8 
# Caractéristique Valeur 
# CCT calculée (K) 3632 
# CCT du fabricant (K) 4000 
# Tension (V) 12 
# Puissance (W) 3.1 
# Efficacité lumineuse (Lum/W) 97.0 
#
# Image: '/app/system/img_2s/2705/medium_image2.JPG?1464613338'
# Image: '/app/system/img_1s/2705/medium_image1.JPG?1464613335'
# 

  273.00  0.0000E+000  
  273.50  0.0000E+000  
  274.00  0.0000E+000  
  274.50  0.0000E+000  
  275.00  0.0000E+000  
  275.50  0.0000E+000  
  276.00  0.0000E+000  
  276.50  0.0000E+000  
  277.00  0.0000E+000  
  277.50  0.0000E+000  
  278.00  0.0000E+000  
  278.50  0.0000E+000  
  279.00  0.0000E+000  
  279.50  0.0000E+000  
  280.00  0.0000E+000  
  280.50  0.0000E+000  
  281.00  0.0000E+000  
  281.50  0.0000E+000  
  282.00  0.0000E+000  
  282.50  0.0000E+000  
  283.00  0.0000E+000  
  283.50  0.0000E+000  
  284.00  0.0000E+000  
  284.50  0.0000E+000  
  285.00  0.0000E+000  
  285.50  0.0000E+000  
  286.00  0.0000E+000  
  286.50  0.0000E+000  
  287.00  0.0000E+000  
  287.50  0.0000E+000  
  288.00  0.0000E+000  
  288.50  0.0000E+000  
  289.00  0.0000E+000  
  289.50  0.0000E+000  
  290.00  0.0000E+000  
  290.50  0.0000E+000  
  291.00  0.0000E+000  
  291.50  0.0000E+000  
  292.00  0.0000E+000  
  292.50  0.0000E+000  
  293.00  0.0000E+000  
  293.50  0.0000E+000  
  294.00  0.0000E+000  
  294.50  0.0000E+000  
  295.00  0.0000E+000  
  295.50  0.0000E+000  
  296.00  0.0000E+000  
  296.50  0.0000E+000  
  297.00  0.0000E+000  
  297.50  0.0000E+000  
  298.00  0.0000E+000  
  298.50  0.0000E+000  
  299.00  0.0000E+000  
  299.50  0.0000E+000  
  300.00  0.0000E+000  
  300.50  0.0000E+000  
  301.00  0.0000E+000  
  301.50  0.0000E+000  
  302.00  0.0000E+000  
  302.50  0.0000E+000  
  303.00  0.0000E+000  
  303.50  0.0000E+000  
  304.00  0.0000E+000  
  304.50  0.0000E+000  
  305.00  0.0000E+000  
  305.50  0.0000E+000  
  306.00  0.0000E+000  
  306.50  0.0000E+000  
  307.00  0.0000E+000  
  307.50  0.0000E+000  
  308.00  0.0000E+000  
  308.50  0.0000E+000  
  309.00  0.0000E+000  
  309.50  0.0000E+000  
  310.00  0.0000E+000  
  310.50  0.0000E+000  
  311.00  1.0993E-005  
  311.50  1.7979E-004  
  312.00  2.5498E-004  
  312.50  2.2069E-004  
  313.00  1.5895E-004  
  313.50  1.9297E-005  
  314.00  0.0000E+000  
  314.50  0.0000E+000  
  315.00  0.0000E+000  
  315.50  0.0000E+000  
  316.00  0.0000E+000  
  316.50  0.0000E+000  
  317.00  0.0000E+000  
  317.50  0.0000E+000  
  318.00  0.0000E+000  
  318.50  2.3643E-006  
  319.00  5.6739E-005  
  319.50  4.1666E-005  
  320.00  1.8572E-006  
  320.50  0.0000E+000  
  321.00  0.0000E+000  
  321.50  2.9914E-005  
  322.00  1.4038E-004  
  322.50  1.0384E-004  
  323.00  2.5341E-005  
  323.50  5.8046E-007  
  324.00  0.0000E+000  
  324.50  0.0000E+000  
  325.00  0.0000E+000  
  325.50  0.0000E+000  
  326.00  0.0000E+000  
  326.50  0.0000E+000  
  327.00  4.9410E-006  
  327.50  2.9711E-005  
  328.00  5.6629E-006  
  328.50  0.0000E+000  
  329.00  0.0000E+000  
  329.50  0.0000E+000  
  330.00  0.0000E+000  
  330.50  0.0000E+000  
  331.00  0.0000E+000  
  331.50  0.0000E+000  
  332.00  0.0000E+000  
  332.50  0.0000E+000  
  333.00  4.0859E-005  
  333.50  0.0000E+000  
  334.00  3.6625E-006  
  334.50  7.9853E-005  
  335.00  1.4687E-004  
  335.50  2.0209E-004  
  336.00  1.9412E-004  
  336.50  1.4212E-004  
  337.00  1.1438E-004  
  337.50  8.7722E-005  
  338.00  1.6260E-005  
  338.50  0.0000E+000  
  339.00  0.0000E+000  
  339.50  0.0000E+000  
  340.00  0.0000E+000  
  340.50  0.0000E+000  
  341.00  2.0214E-005  
  341.50  1.0130E-004  
  342.00  1.5388E-004  
  342.50  1.5086E-004  
  343.00  1.0179E-004  
  343.50  6.4763E-006  
  344.00  0.0000E+000  
  344.50  0.0000E+000  
  345.00  8.0147E-006  
  345.50  5.3553E-005  
  346.00  4.0847E-005  
  346.50  2.1140E-005  
  347.00  0.0000E+000  
  347.50  0.0000E+000  
  348.00  0.0000E+000  
  348.50  0.0000E+000  
  349.00  2.9778E-005  
  349.50  1.3494E-004  
  350.00  2.2217E-004  
  350.50  1.9288E-004  
  351.00  1.6267E-004  
  351.50  9.9931E-005  
  352.00  1.1266E-004  
  352.50  8.0287E-005  
  353.00  3.4464E-005  
  353.50  1.1471E-005  
  354.00  0.0000E+000  
  354.50  0.0000E+000  
  355.00  0.0000E+000  
  355.50  2.9155E-005  
  356.00  7.0463E-005  
  356.50  5.4921E-005  
  357.00  1.5864E-005  
  357.50  0.0000E+000  
  358.00  1.1083E-005  
  358.50  5.3229E-005  
  359.00  7.6641E-005  
  359.50  1.0989E-004  
  360.00  1.1622E-004  
  360.50  1.0183E-004  
  361.00  1.0231E-004  
  361.50  8.2751E-005  
  362.00  8.9646E-005  
  362.50  1.3031E-004  
  363.00  1.4042E-004  
  363.50  1.7650E-004  
  364.00  1.7821E-004  
  364.50  1.4162E-004  
  365.00  1.6482E-004  
  365.50  1.0468E-004  
  366.00  7.9749E-006  
  366.50  0.0000E+000  
  367.00  0.0000E+000  
  367.50  0.0000E+000  
  368.00  0.0000E+000  
  368.50  0.0000E+000  
  369.00  3.1008E-005  
  369.50  8.3759E-005  
  370.00  1.1348E-004  
  370.50  1.8877E-004  
  371.00  1.3810E-004  
  371.50  9.1865E-005  
  372.00  7.3669E-005  
  372.50  3.1074E-005  
  373.00  6.7863E-005  
  373.50  5.1497E-005  
  374.00  0.0000E+000  
  374.50  1.7779E-006  
  375.00  1.2941E-006  
  375.50  0.0000E+000  
  376.00  0.0000E+000  
  376.50  0.0000E+000  
  377.00  0.0000E+000  
  377.50  1.2664E-005  
  378.00  3.1940E-005  
  378.50  0.0000E+000  
  379.00  2.7840E-006  
  379.50  6.3322E-005  
  380.00  1.1808E-004  
  380.50  1.6924E-004  
  381.00  1.7214E-004  
  381.50  1.0573E-004  
  382.00  7.5446E-005  
  382.50  6.4674E-005  
  383.00  1.4365E-004  
  383.50  1.5509E-004  
  384.00  1.3094E-004  
  384.50  6.2955E-005  
  385.00  8.5538E-007  
  385.50  0.0000E+000  
  386.00  0.0000E+000  
  386.50  0.0000E+000  
  387.00  0.0000E+000  
  387.50  0.0000E+000  
  388.00  0.0000E+000  
  388.50  7.5810E-006  
  389.00  1.0588E-004  
  389.50  1.9311E-004  
  390.00  2.4722E-004  
  390.50  2.7741E-004  
  391.00  2.2163E-004  
  391.50  1.6786E-004  
  392.00  1.2884E-004  
  392.50  1.6008E-004  
  393.00  1.6218E-004  
  393.50  1.7724E-004  
  394.00  1.7804E-004  
  394.50  1.4423E-004  
  395.00  1.1356E-004  
  395.50  1.1551E-004  
  396.00  1.3448E-004  
  396.50  1.7042E-004  
  397.00  2.0748E-004  
  397.50  2.2294E-004  
  398.00  2.1359E-004  
  398.50  2.5399E-004  
  399.00  2.2091E-004  
  399.50  2.1319E-004  
  400.00  2.5625E-004  
  400.50  3.3048E-004  
  401.00  3.7841E-004  
  401.50  3.5643E-004  
  402.00  3.1210E-004  
  402.50  3.0384E-004  
  403.00  3.5429E-004  
  403.50  4.1457E-004  
  404.00  4.3951E-004  
  404.50  4.4028E-004  
  405.00  4.7549E-004  
  405.50  5.3270E-004  
  406.00  5.6963E-004  
  406.50  5.8470E-004  
  407.00  5.5187E-004  
  407.50  5.0781E-004  
  408.00  5.3407E-004  
  408.50  5.8289E-004  
  409.00  6.2344E-004  
  409.50  6.7487E-004  
  410.00  7.2777E-004  
  410.50  7.7589E-004  
  411.00  8.7248E-004  
  411.50  1.0064E-003  
  412.00  1.1477E-003  
  412.50  1.2201E-003  
  413.00  1.3133E-003  
  413.50  1.3914E-003  
  414.00  1.4498E-003  
  414.50  1.5668E-003  
  415.00  1.6581E-003  
  415.50  1.7310E-003  
  416.00  1.8436E-003  
  416.50  1.9837E-003  
  417.00  2.1505E-003  
  417.50  2.3591E-003  
  418.00  2.5618E-003  
  418.50  2.7584E-003  
  419.00  2.9936E-003  
  419.50  3.2581E-003  
  420.00  3.5587E-003  
  420.50  3.8422E-003  
  421.00  4.1437E-003  
  421.50  4.4403E-003  
  422.00  4.7929E-003  
  422.50  5.1257E-003  
  423.00  5.4896E-003  
  423.50  5.9081E-003  
  424.00  6.2989E-003  
  424.50  6.8001E-003  
  425.00  7.2099E-003  
  425.50  7.5908E-003  
  426.00  7.9943E-003  
  426.50  8.4408E-003  
  427.00  8.9312E-003  
  427.50  9.4467E-003  
  428.00  9.9989E-003  
  428.50  1.0564E-002  
  429.00  1.1190E-002  
  429.50  1.1789E-002  
  430.00  1.2432E-002  
  430.50  1.3071E-002  
  431.00  1.3684E-002  
  431.50  1.4337E-002  
  432.00  1.4913E-002  
  432.50  1.5622E-002  
  433.00  1.6411E-002  
  433.50  1.7313E-002  
  434.00  1.8205E-002  
  434.50  1.9057E-002  
  435.00  1.9807E-002  
  435.50  2.0565E-002  
  436.00  2.1482E-002  
  436.50  2.2476E-002  
  437.00  2.3541E-002  
  437.50  2.4644E-002  
  438.00  2.5778E-002  
  438.50  2.7022E-002  
  439.00  2.8307E-002  
  439.50  2.9586E-002  
  440.00  3.0889E-002  
  440.50  3.2196E-002  
  441.00  3.3620E-002  
  441.50  3.5024E-002  
  442.00  3.6541E-002  
  442.50  3.7977E-002  
  443.00  3.9314E-002  
  443.50  4.0473E-002  
  444.00  4.1654E-002  
  444.50  4.2845E-002  
  445.00  4.3999E-002  
  445.50  4.4994E-002  
  446.00  4.5589E-002  
  446.50  4.6086E-002  
  447.00  4.6457E-002  
  447.50  4.6758E-002  
  448.00  4.6767E-002  
  448.50  4.6529E-002  
  449.00  4.6142E-002  
  449.50  4.5683E-002  
  450.00  4.4849E-002  
  450.50  4.3718E-002  
  451.00  4.2361E-002  
  451.50  4.0970E-002  
  452.00  3.9763E-002  
  452.50  3.8561E-002  
  453.00  3.7421E-002  
  453.50  3.6027E-002  
  454.00  3.4432E-002  
  454.50  3.2745E-002  
  455.00  3.1129E-002  
  455.50  2.9743E-002  
  456.00  2.8428E-002  
  456.50  2.7070E-002  
  457.00  2.5777E-002  
  457.50  2.4528E-002  
  458.00  2.3443E-002  
  458.50  2.2509E-002  
  459.00  2.1647E-002  
  459.50  2.0806E-002  
  460.00  2.0009E-002  
  460.50  1.9220E-002  
  461.00  1.8463E-002  
  461.50  1.7876E-002  
  462.00  1.7292E-002  
  462.50  1.6739E-002  
  463.00  1.6252E-002  
  463.50  1.5711E-002  
  464.00  1.5284E-002  
  464.50  1.4813E-002  
  465.00  1.4246E-002  
  465.50  1.3639E-002  
  466.00  1.3068E-002  
  466.50  1.2666E-002  
  467.00  1.2372E-002  
  467.50  1.2072E-002  
  468.00  1.1753E-002  
  468.50  1.1316E-002  
  469.00  1.0853E-002  
  469.50  1.0390E-002  
  470.00  1.0053E-002  
  470.50  9.7996E-003  
  471.00  9.5033E-003  
  471.50  9.2069E-003  
  472.00  8.8886E-003  
  472.50  8.6176E-003  
  473.00  8.3915E-003  
  473.50  8.1660E-003  
  474.00  7.9182E-003  
  474.50  7.7261E-003  
  475.00  7.5242E-003  
  475.50  7.3324E-003  
  476.00  7.1377E-003  
  476.50  6.9532E-003  
  477.00  6.7971E-003  
  477.50  6.6498E-003  
  478.00  6.5355E-003  
  478.50  6.4716E-003  
  479.00  6.4034E-003  
  479.50  6.3326E-003  
  480.00  6.2896E-003  
  480.50  6.2559E-003  
  481.00  6.2256E-003  
  481.50  6.2040E-003  
  482.00  6.0999E-003  
  482.50  6.0460E-003  
  483.00  6.0041E-003  
  483.50  5.9731E-003  
  484.00  5.9978E-003  
  484.50  5.9517E-003  
  485.00  5.9305E-003  
  485.50  5.9273E-003  
  486.00  5.9338E-003  
  486.50  5.9936E-003  
  487.00  6.0458E-003  
  487.50  6.1082E-003  
  488.00  6.1787E-003  
  488.50  6.2307E-003  
  489.00  6.3209E-003  
  489.50  6.4103E-003  
  490.00  6.5399E-003  
  490.50  6.6616E-003  
  491.00  6.7951E-003  
  491.50  6.9307E-003  
  492.00  7.0845E-003  
  492.50  7.2621E-003  
  493.00  7.4397E-003  
  493.50  7.6797E-003  
  494.00  7.9076E-003  
  494.50  8.1437E-003  
  495.00  8.3724E-003  
  495.50  8.6031E-003  
  496.00  8.9002E-003  
  496.50  9.2328E-003  
  497.00  9.6017E-003  
  497.50  9.9998E-003  
  498.00  1.0352E-002  
  498.50  1.0716E-002  
  499.00  1.1081E-002  
  499.50  1.1458E-002  
  500.00  1.1849E-002  
  500.50  1.2233E-002  
  501.00  1.2618E-002  
  501.50  1.3086E-002  
  502.00  1.3534E-002  
  502.50  1.4017E-002  
  503.00  1.4536E-002  
  503.50  1.5020E-002  
  504.00  1.5509E-002  
  504.50  1.5993E-002  
  505.00  1.6527E-002  
  505.50  1.7111E-002  
  506.00  1.7671E-002  
  506.50  1.8194E-002  
  507.00  1.8718E-002  
  507.50  1.9277E-002  
  508.00  1.9847E-002  
  508.50  2.0406E-002  
  509.00  2.0914E-002  
  509.50  2.1443E-002  
  510.00  2.2002E-002  
  510.50  2.2605E-002  
  511.00  2.3305E-002  
  511.50  2.3968E-002  
  512.00  2.4589E-002  
  512.50  2.5129E-002  
  513.00  2.5647E-002  
  513.50  2.6138E-002  
  514.00  2.6651E-002  
  514.50  2.7168E-002  
  515.00  2.7723E-002  
  515.50  2.8286E-002  
  516.00  2.8823E-002  
  516.50  2.9398E-002  
  517.00  2.9938E-002  
  517.50  3.0490E-002  
  518.00  3.1024E-002  
  518.50  3.1570E-002  
  519.00  3.2099E-002  
  519.50  3.2597E-002  
  520.00  3.3090E-002  
  520.50  3.3603E-002  
  521.00  3.4148E-002  
  521.50  3.4678E-002  
  522.00  3.5141E-002  
  522.50  3.5562E-002  
  523.00  3.6009E-002  
  523.50  3.6452E-002  
  524.00  3.6926E-002  
  524.50  3.7384E-002  
  525.00  3.7847E-002  
  525.50  3.8316E-002  
  526.00  3.8720E-002  
  526.50  3.9078E-002  
  527.00  3.9501E-002  
  527.50  3.9910E-002  
  528.00  4.0371E-002  
  528.50  4.0805E-002  
  529.00  4.1169E-002  
  529.50  4.1494E-002  
  530.00  4.1858E-002  
  530.50  4.2273E-002  
  531.00  4.2724E-002  
  531.50  4.3143E-002  
  532.00  4.3538E-002  
  532.50  4.3921E-002  
  533.00  4.4272E-002  
  533.50  4.4621E-002  
  534.00  4.4942E-002  
  534.50  4.5282E-002  
  535.00  4.5605E-002  
  535.50  4.5990E-002  
  536.00  4.6384E-002  
  536.50  4.6668E-002  
  537.00  4.6900E-002  
  537.50  4.7120E-002  
  538.00  4.7433E-002  
  538.50  4.7767E-002  
  539.00  4.8085E-002  
  539.50  4.8412E-002  
  540.00  4.8790E-002  
  540.50  4.9081E-002  
  541.00  4.9328E-002  
  541.50  4.9557E-002  
  542.00  4.9816E-002  
  542.50  5.0105E-002  
  543.00  5.0352E-002  
  543.50  5.0554E-002  
  544.00  5.0772E-002  
  544.50  5.1002E-002  
  545.00  5.1259E-002  
  545.50  5.1525E-002  
  546.00  5.1698E-002  
  546.50  5.1775E-002  
  547.00  5.1985E-002  
  547.50  5.2258E-002  
  548.00  5.2555E-002  
  548.50  5.2816E-002  
  549.00  5.3027E-002  
  549.50  5.3212E-002  
  550.00  5.3395E-002  
  550.50  5.3533E-002  
  551.00  5.3658E-002  
  551.50  5.3861E-002  
  552.00  5.4010E-002  
  552.50  5.4206E-002  
  553.00  5.4348E-002  
  553.50  5.4520E-002  
  554.00  5.4729E-002  
  554.50  5.4914E-002  
  555.00  5.5042E-002  
  555.50  5.5112E-002  
  556.00  5.5151E-002  
  556.50  5.5265E-002  
  557.00  5.5410E-002  
  557.50  5.5675E-002  
  558.00  5.5869E-002  
  558.50  5.5958E-002  
  559.00  5.5924E-002  
  559.50  5.5942E-002  
  560.00  5.6112E-002  
  560.50  5.6312E-002  
  561.00  5.6520E-002  
  561.50  5.6652E-002  
  562.00  5.6791E-002  
  562.50  5.6925E-002  
  563.00  5.7059E-002  
  563.50  5.7155E-002  
  564.00  5.7245E-002  
  564.50  5.7311E-002  
  565.00  5.7453E-002  
  565.50  5.7569E-002  
  566.00  5.7559E-002  
  566.50  5.7474E-002  
  567.00  5.7435E-002  
  567.50  5.7604E-002  
  568.00  5.7821E-002  
  568.50  5.7911E-002  
  569.00  5.7886E-002  
  569.50  5.7812E-002  
  570.00  5.7780E-002  
  570.50  5.7860E-002  
  571.00  5.7995E-002  
  571.50  5.8086E-002  
  572.00  5.8057E-002  
  572.50  5.8023E-002  
  573.00  5.8065E-002  
  573.50  5.8147E-002  
  574.00  5.8165E-002  
  574.50  5.8084E-002  
  575.00  5.8074E-002  
  575.50  5.8081E-002  
  576.00  5.8125E-002  
  576.50  5.8206E-002  
  577.00  5.8312E-002  
  577.50  5.8470E-002  
  578.00  5.8512E-002  
  578.50  5.8505E-002  
  579.00  5.8421E-002  
  579.50  5.8357E-002  
  580.00  5.8289E-002  
  580.50  5.8247E-002  
  581.00  5.8306E-002  
  581.50  5.8430E-002  
  582.00  5.8430E-002  
  582.50  5.8311E-002  
  583.00  5.8069E-002  
  583.50  5.7901E-002  
  584.00  5.7848E-002  
  584.50  5.7943E-002  
  585.00  5.8087E-002  
  585.50  5.8157E-002  
  586.00  5.8149E-002  
  586.50  5.8026E-002  
  587.00  5.7933E-002  
  587.50  5.7891E-002  
  588.00  5.7838E-002  
  588.50  5.7807E-002  
  589.00  5.7713E-002  
  589.50  5.7648E-002  
  590.00  5.7591E-002  
  590.50  5.7525E-002  
  591.00  5.7457E-002  
  591.50  5.7403E-002  
  592.00  5.7383E-002  
  592.50  5.7269E-002  
  593.00  5.7205E-002  
  593.50  5.7006E-002  
  594.00  5.6973E-002  
  594.50  5.6885E-002  
  595.00  5.6795E-002  
  595.50  5.6645E-002  
  596.00  5.6478E-002  
  596.50  5.6356E-002  
  597.00  5.6242E-002  
  597.50  5.6109E-002  
  598.00  5.5971E-002  
  598.50  5.5750E-002  
  599.00  5.5630E-002  
  599.50  5.5450E-002  
  600.00  5.5174E-002  
  600.50  5.4886E-002  
  601.00  5.4692E-002  
  601.50  5.4615E-002  
  602.00  5.4593E-002  
  602.50  5.4529E-002  
  603.00  5.4442E-002  
  603.50  5.4212E-002  
  604.00  5.4018E-002  
  604.50  5.3702E-002  
  605.00  5.3479E-002  
  605.50  5.3241E-002  
  606.00  5.3018E-002  
  606.50  5.2851E-002  
  607.00  5.2591E-002  
  607.50  5.2401E-002  
  608.00  5.2181E-002  
  608.50  5.1918E-002  
  609.00  5.1706E-002  
  609.50  5.1585E-002  
  610.00  5.1543E-002  
  610.50  5.1371E-002  
  611.00  5.1132E-002  
  611.50  5.0909E-002  
  612.00  5.0808E-002  
  612.50  5.0640E-002  
  613.00  5.0406E-002  
  613.50  5.0124E-002  
  614.00  4.9813E-002  
  614.50  4.9649E-002  
  615.00  4.9406E-002  
  615.50  4.9286E-002  
  616.00  4.8950E-002  
  616.50  4.8665E-002  
  617.00  4.8357E-002  
  617.50  4.8106E-002  
  618.00  4.7964E-002  
  618.50  4.7711E-002  
  619.00  4.7473E-002  
  619.50  4.7064E-002  
  620.00  4.6823E-002  
  620.50  4.6622E-002  
  621.00  4.6571E-002  
  621.50  4.6454E-002  
  622.00  4.6153E-002  
  622.50  4.5817E-002  
  623.00  4.5357E-002  
  623.50  4.4986E-002  
  624.00  4.4602E-002  
  624.50  4.4369E-002  
  625.00  4.4241E-002  
  625.50  4.4103E-002  
  626.00  4.3762E-002  
  626.50  4.3433E-002  
  627.00  4.3134E-002  
  627.50  4.2956E-002  
  628.00  4.2811E-002  
  628.50  4.2548E-002  
  629.00  4.2173E-002  
  629.50  4.1839E-002  
  630.00  4.1588E-002  
  630.50  4.1387E-002  
  631.00  4.1059E-002  
  631.50  4.0744E-002  
  632.00  4.0377E-002  
  632.50  4.0076E-002  
  633.00  3.9851E-002  
  633.50  3.9690E-002  
  634.00  3.9549E-002  
  634.50  3.9429E-002  
  635.00  3.9295E-002  
  635.50  3.8958E-002  
  636.00  3.8460E-002  
  636.50  3.7950E-002  
  637.00  3.7638E-002  
  637.50  3.7449E-002  
  638.00  3.7373E-002  
  638.50  3.7135E-002  
  639.00  3.6795E-002  
  639.50  3.6352E-002  
  640.00  3.5985E-002  
  640.50  3.5638E-002  
  641.00  3.5370E-002  
  641.50  3.5148E-002  
  642.00  3.4920E-002  
  642.50  3.4611E-002  
  643.00  3.4318E-002  
  643.50  3.4071E-002  
  644.00  3.3815E-002  
  644.50  3.3546E-002  
  645.00  3.3275E-002  
  645.50  3.3092E-002  
  646.00  3.2856E-002  
  646.50  3.2581E-002  
  647.00  3.2235E-002  
  647.50  3.1902E-002  
  648.00  3.1571E-002  
  648.50  3.1266E-002  
  649.00  3.0951E-002  
  649.50  3.0736E-002  
  650.00  3.0506E-002  
  650.50  3.0264E-002  
  651.00  2.9949E-002  
  651.50  2.9580E-002  
  652.00  2.9236E-002  
  652.50  2.8871E-002  
  653.00  2.8512E-002  
  653.50  2.8158E-002  
  654.00  2.7898E-002  
  654.50  2.7690E-002  
  655.00  2.7467E-002  
  655.50  2.7178E-002  
  656.00  2.6857E-002  
  656.50  2.6675E-002  
  657.00  2.6396E-002  
  657.50  2.6145E-002  
  658.00  2.5838E-002  
  658.50  2.5598E-002  
  659.00  2.5253E-002  
  659.50  2.4959E-002  
  660.00  2.4657E-002  
  660.50  2.4386E-002  
  661.00  2.4148E-002  
  661.50  2.3942E-002  
  662.00  2.3819E-002  
  662.50  2.3517E-002  
  663.00  2.3268E-002  
  663.50  2.3006E-002  
  664.00  2.2841E-002  
  664.50  2.2565E-002  
  665.00  2.2259E-002  
  665.50  2.1975E-002  
  666.00  2.1703E-002  
  666.50  2.1447E-002  
  667.00  2.1184E-002  
  667.50  2.1012E-002  
  668.00  2.0802E-002  
  668.50  2.0575E-002  
  669.00  2.0261E-002  
  669.50  1.9998E-002  
  670.00  1.9751E-002  
  670.50  1.9473E-002  
  671.00  1.9206E-002  
  671.50  1.8965E-002  
  672.00  1.8833E-002  
  672.50  1.8607E-002  
  673.00  1.8326E-002  
  673.50  1.8121E-002  
  674.00  1.7998E-002  
  674.50  1.7851E-002  
  675.00  1.7568E-002  
  675.50  1.7244E-002  
  676.00  1.6933E-002  
  676.50  1.6715E-002  
  677.00  1.6547E-002  
  677.50  1.6348E-002  
  678.00  1.6070E-002  
  678.50  1.5848E-002  
  679.00  1.5782E-002  
  679.50  1.5652E-002  
  680.00  1.5529E-002  
  680.50  1.5267E-002  
  681.00  1.5020E-002  
  681.50  1.4725E-002  
  682.00  1.4430E-002  
  682.50  1.4384E-002  
  683.00  1.4320E-002  
  683.50  1.4197E-002  
  684.00  1.3994E-002  
  684.50  1.3718E-002  
  685.00  1.3494E-002  
  685.50  1.3234E-002  
  686.00  1.3096E-002  
  686.50  1.2955E-002  
  687.00  1.2768E-002  
  687.50  1.2535E-002  
  688.00  1.2363E-002  
  688.50  1.2208E-002  
  689.00  1.2133E-002  
  689.50  1.1973E-002  
  690.00  1.1800E-002  
  690.50  1.1667E-002  
  691.00  1.1522E-002  
  691.50  1.1352E-002  
  692.00  1.1210E-002  
  692.50  1.1091E-002  
  693.00  1.0977E-002  
  693.50  1.0837E-002  
  694.00  1.0736E-002  
  694.50  1.0599E-002  
  695.00  1.0444E-002  
  695.50  1.0313E-002  
  696.00  1.0176E-002  
  696.50  1.0059E-002  
  697.00  9.8754E-003  
  697.50  9.7950E-003  
  698.00  9.6767E-003  
  698.50  9.7100E-003  
  699.00  9.6770E-003  
  699.50  9.5173E-003  
  700.00  9.2721E-003  
  700.50  9.0414E-003  
  701.00  8.9152E-003  
  701.50  8.7322E-003  
  702.00  8.5121E-003  
  702.50  8.3210E-003  
  703.00  8.2368E-003  
  703.50  8.2406E-003  
  704.00  8.2857E-003  
  704.50  8.1966E-003  
  705.00  8.0479E-003  
  705.50  7.8618E-003  
  706.00  7.7292E-003  
  706.50  7.6531E-003  
  707.00  7.5745E-003  
  707.50  7.4946E-003  
  708.00  7.4294E-003  
  708.50  7.4176E-003  
  709.00  7.4885E-003  
  709.50  7.4440E-003  
  710.00  7.2780E-003  
  710.50  7.0726E-003  
  711.00  6.9319E-003  
  711.50  6.8094E-003  
  712.00  6.6256E-003  
  712.50  6.5387E-003  
  713.00  6.4376E-003  
  713.50  6.3294E-003  
  714.00  6.1871E-003  
  714.50  6.0935E-003  
  715.00  6.0180E-003  
  715.50  5.8985E-003  
  716.00  5.6544E-003  
  716.50  5.5338E-003  
  717.00  5.6080E-003  
  717.50  5.7535E-003  
  718.00  5.7637E-003  
  718.50  5.6553E-003  
  719.00  5.5221E-003  
  719.50  5.3938E-003  
  720.00  5.3285E-003  
  720.50  5.2876E-003  
  721.00  5.2466E-003  
  721.50  5.1554E-003  
  722.00  4.9920E-003  
  722.50  4.8494E-003  
  723.00  4.7789E-003  
  723.50  4.8939E-003  
  724.00  4.9389E-003  
  724.50  4.8240E-003  
  725.00  4.5936E-003  
  725.50  4.4315E-003  
  726.00  4.4142E-003  
  726.50  4.4129E-003  
  727.00  4.3824E-003  
  727.50  4.3266E-003  
  728.00  4.3256E-003  
  728.50  4.3073E-003  
  729.00  4.2234E-003  
  729.50  4.0857E-003  
  730.00  4.0158E-003  
  730.50  3.9936E-003  
  731.00  3.9182E-003  
  731.50  3.8912E-003  
  732.00  3.9003E-003  
  732.50  3.8706E-003  
  733.00  3.7599E-003  
  733.50  3.6724E-003  
  734.00  3.7337E-003  
  734.50  3.8363E-003  
  735.00  3.7316E-003  
  735.50  3.5326E-003  
  736.00  3.3692E-003  
  736.50  3.3105E-003  
  737.00  3.3173E-003  
  737.50  3.2196E-003  
  738.00  3.1248E-003  
  738.50  3.1478E-003  
  739.00  3.2120E-003  
  739.50  3.2658E-003  
  740.00  3.1424E-003  
  740.50  3.0143E-003  
  741.00  2.8545E-003  
  741.50  2.8556E-003  
  742.00  2.9074E-003  
  742.50  2.8415E-003  
  743.00  2.7442E-003  
  743.50  2.6849E-003  
  744.00  2.7187E-003  
  744.50  2.7093E-003  
  745.00  2.7063E-003  
  745.50  2.5403E-003  
  746.00  2.4192E-003  
  746.50  2.3090E-003  
  747.00  2.3075E-003  
  747.50  2.4749E-003  
  748.00  2.5492E-003  
  748.50  2.5726E-003  
  749.00  2.3439E-003  
  749.50  2.3225E-003  
  750.00  2.2964E-003  
  750.50  2.2951E-003  
  751.00  2.2086E-003  
  751.50  2.2800E-003  
  752.00  2.2910E-003  
  752.50  2.3562E-003  
  753.00  2.3473E-003  
  753.50  2.4049E-003  
  754.00  2.2179E-003  
  754.50  2.1614E-003  
  755.00  2.1252E-003  
  755.50  2.1114E-003  
  756.00  2.0886E-003  
  756.50  2.0158E-003  
  757.00  1.9065E-003  
  757.50  1.8813E-003  
  758.00  1.8653E-003  
  758.50  1.8455E-003  
  759.00  1.8371E-003  
  759.50  1.8248E-003  
  760.00  1.7429E-003  
  760.50  1.7542E-003  
  761.00  1.7097E-003  
  761.50  1.7009E-003  
  762.00  1.5905E-003  
  762.50  1.6980E-003  
  763.00  1.7568E-003  
  763.50  1.8687E-003  
  764.00  1.8275E-003  
  764.50  1.6715E-003  
  765.00  1.4621E-003  
  765.50  1.4177E-003  
  766.00  1.4225E-003  
  766.50  1.3502E-003  
  767.00  1.3241E-003  
  767.50  1.4164E-003  
  768.00  1.5333E-003  
  768.50  1.4679E-003  
  769.00  1.3534E-003  
  769.50  1.2568E-003  
  770.00  1.3178E-003  
  770.50  1.3704E-003  
  771.00  1.4618E-003  
  771.50  1.4493E-003  
  772.00  1.3122E-003  
  772.50  1.1503E-003  
  773.00  1.1688E-003  
  773.50  1.2852E-003  
  774.00  1.1875E-003  
  774.50  9.0982E-004  
  775.00  8.2132E-004  
  775.50  8.8219E-004  
  776.00  8.9576E-004  
  776.50  9.6548E-004  
  777.00  9.2434E-004  
  777.50  1.0553E-003  
  778.00  9.6889E-004  
  778.50  1.0049E-003  
  779.00  9.8084E-004  
  779.50  8.0410E-004  
  780.00  6.6738E-004  
  780.50  7.3614E-004  
  781.00  9.7212E-004  
  781.50  1.0799E-003  
  782.00  9.8664E-004  
  782.50  8.5769E-004  
  783.00  9.8774E-004  
  783.50  9.6052E-004  
  784.00  9.2685E-004  
  784.50  8.7804E-004  
  785.00  9.2171E-004  
  785.50  8.7262E-004  
  786.00  5.9375E-004  
  786.50  3.7089E-004  
  787.00  4.5433E-004  
  787.50  6.1478E-004  
  788.00  5.8800E-004  
  788.50  3.9010E-004  
  789.00  3.1179E-004  
  789.50  3.9100E-004  
  790.00  5.0894E-004  
  790.50  6.3538E-004  
  791.00  6.8337E-004  
  791.50  8.2658E-004  
  792.00  9.6083E-004  
  792.50  8.2558E-004  
  793.00  5.8446E-004  
  793.50  3.9846E-004  
  794.00  4.5742E-004  
  794.50  4.3792E-004  
  795.00  4.2492E-004  
  795.50  4.2889E-004  
  796.00  6.3878E-004  
  796.50  7.1712E-004  
  797.00  7.5306E-004  
  797.50  5.2922E-004  
  798.00  4.0867E-004  
  798.50  5.2055E-004  
  799.00  6.3119E-004  
  799.50  7.2708E-004  
  800.00  6.2905E-004  
  800.50  5.1518E-004  
  801.00  2.8160E-004  
  801.50  1.8070E-004  
  802.00  3.2244E-004  
  802.50  4.8108E-004  
  803.00  3.1205E-004  
  803.50  2.4749E-004  
  804.00  2.7573E-004  
  804.50  3.1104E-004  
  805.00  3.2022E-004  
  805.50  2.0974E-004  
  806.00  0.0000E+000  
  806.50  0.0000E+000  
  807.00  2.1484E-004  
  807.50  6.4916E-004  
  808.00  7.0320E-004  
  808.50  5.8413E-004  
  809.00  4.3651E-004  
  809.50  2.4755E-004  
  810.00  2.6705E-004  
  810.50  5.0841E-004  
  811.00  6.0538E-004  
  811.50  4.1077E-004  
  812.00  2.3497E-004  
  812.50  2.9343E-004  
  813.00  4.1145E-004  
  813.50  4.3032E-004  
  814.00  3.1199E-004  
  814.50  2.4030E-004  
  815.00  3.2520E-004  
  815.50  3.5985E-004  
  816.00  5.8793E-004  
  816.50  4.5570E-004  
  817.00  6.4402E-005  
  817.50  0.0000E+000  
  818.00  0.0000E+000  
  818.50  0.0000E+000  
  819.00  1.1417E-004  
  819.50  3.8892E-004  
  820.00  1.8736E-004  
  820.50  4.3853E-006  
  821.00  0.0000E+000  
  821.50  1.6033E-004  
  822.00  1.0968E-004  
  822.50  2.1088E-004  
  823.00  3.4043E-004  
  823.50  3.1428E-004  
  824.00  1.8996E-004  
  824.50  1.9885E-004  
  825.00  9.8403E-005  
  825.50  2.1007E-005  
  826.00  0.0000E+000  
  826.50  0.0000E+000  
  827.00  0.0000E+000  
  827.50  0.0000E+000  
  828.00  1.8888E-004  
  828.50  5.7588E-005  
  829.00  1.9589E-004  
  829.50  3.3539E-004  
  830.00  4.8948E-004  
  830.50  3.9003E-004  
  831.00  7.8967E-005  
  831.50  1.0751E-004  
  832.00  6.2136E-004  
  832.50  6.4535E-004  
  833.00  4.4262E-004  
  833.50  3.3318E-004  
  834.00  1.5923E-004  
  834.50  1.4436E-004  
  835.00  2.0037E-004  
  835.50  2.5954E-004  
  836.00  5.1225E-004  
  836.50  4.9982E-004  
  837.00  3.4528E-004  
  837.50  2.8229E-006  
  838.00  0.0000E+000  
  838.50  0.0000E+000  
  839.00  0.0000E+000  
  839.50  0.0000E+000  
  840.00  0.0000E+000  
  840.50  0.0000E+000  
  841.00  0.0000E+000  
  841.50  0.0000E+000  
  842.00  1.2256E-004  
  842.50  1.4649E-004  
  843.00  0.0000E+000  
  843.50  0.0000E+000  
  844.00  0.0000E+000  
  844.50  0.0000E+000  
  845.00  0.0000E+000  
  845.50  1.0155E-004  
  846.00  1.5093E-004  
  846.50  0.0000E+000  
  847.00  0.0000E+000  
  847.50  0.0000E+000  
  848.00  9.8726E-005  
  848.50  8.7206E-005  
  849.00  0.0000E+000  
  849.50  0.0000E+000  
  850.00  0.0000E+000  
  850.50  1.9844E-004  
  851.00  7.9772E-005  
  851.50  2.4695E-004  
  852.00  2.0478E-004  
  852.50  9.1349E-005  
  853.00  0.0000E+000  
  853.50  0.0000E+000  
  854.00  0.0000E+000  
  854.50  0.0000E+000  
  855.00  1.0656E-004  
  855.50  4.1633E-004  
  856.00  2.7004E-004  
  856.50  0.0000E+000  
  857.00  0.0000E+000  
  857.50  0.0000E+000  
  858.00  0.0000E+000  
  858.50  0.0000E+000  
  859.00  0.0000E+000  
  859.50  3.0003E-005  
  860.00  3.3191E-004  
  860.50  0.0000E+000  
  861.00  0.0000E+000  
  861.50  0.0000E+000  
  862.00  0.0000E+000  
  862.50  0.0000E+000  
  863.00  0.0000E+000  
  863.50  0.0000E+000  
  864.00  0.0000E+000  
  864.50  0.0000E+000  
  865.00  0.0000E+000  
  865.50  0.0000E+000  
  866.00  0.0000E+000  
  866.50  0.0000E+000  
  867.00  0.0000E+000  
  867.50  1.3026E-004  
  868.00  3.6073E-005  
  868.50  0.0000E+000  
  869.00  0.0000E+000  
  869.50  0.0000E+000  
  870.00  0.0000E+000  
  870.50  0.0000E+000  
  871.00  0.0000E+000  
  871.50  0.0000E+000  
  872.00  0.0000E+000  
  872.50  0.0000E+000  
  873.00  0.0000E+000  
  873.50  0.0000E+000  
  874.00  0.0000E+000  
  874.50  0.0000E+000  
  875.00  1.1900E-004  
  875.50  3.5752E-004  
  876.00  1.0362E-005  
  876.50  0.0000E+000  
  877.00  0.0000E+000  
  877.50  0.0000E+000  
  878.00  1.8457E-004  
  878.50  6.1848E-004  
  879.00  2.7384E-004  
  879.50  0.0000E+000  
  880.00  0.0000E+000  
  880.50  4.3283E-005  
  881.00  6.8016E-004  
  881.50  7.7138E-004  
  882.00  7.0368E-004  
  882.50  3.6197E-004  
  883.00  2.3300E-005  
  883.50  0.0000E+000  
  884.00  0.0000E+000  
  884.50  3.6439E-006  
  885.00  0.0000E+000  
  885.50  0.0000E+000  
  886.00  0.0000E+000  
  886.50  0.0000E+000  
  887.00  3.7687E-004  
  887.50  8.3906E-004  
  888.00  5.7890E-004  
  888.50  0.0000E+000  
  889.00  5.3576E-004  
  889.50  4.7546E-004  
  890.00  0.0000E+000  
  890.50  0.0000E+000  
  891.00  0.0000E+000  
  891.50  0.0000E+000  
  892.00  0.0000E+000  
  892.50  0.0000E+000  
  893.00  0.0000E+000  
  893.50  0.0000E+000  
  894.00  0.0000E+000  
  894.50  2.0065E-004  
  895.00  7.8489E-004  
  895.50  8.1149E-004  
  896.00  4.6227E-004  
  896.50  4.5830E-004  
  897.00  1.0624E-003  
  897.50  9.5634E-004  
  898.00  1.3692E-004  
  898.50  0.0000E+000  
  899.00  0.0000E+000  
  899.50  0.0000E+000  
