
# From lspdd.org
# 
# Name: DEL Dals LEDSQP6 Domestique
# Indice spectral Valeur 
# MSI 0.29 
# SLI 0.49 
# IPI 0.66 
# Pourcentage de bleu 19.0 
# Caractéristique Valeur 
# CCT calculée (K) 2729 
# CCT du fabricant (K) 3000 
# Tension (V) 12 
# Puissance (W) 1.5 
# Efficacité lumineuse (Lum/W) 100.0 
#
# Image: '/app/system/img_1s/2707/medium_image1.JPG?1464613372'
# 

  273.00  0.0000E+000  
  273.50  0.0000E+000  
  274.00  0.0000E+000  
  274.50  0.0000E+000  
  275.00  0.0000E+000  
  275.50  0.0000E+000  
  276.00  0.0000E+000  
  276.50  0.0000E+000  
  277.00  0.0000E+000  
  277.50  0.0000E+000  
  278.00  0.0000E+000  
  278.50  0.0000E+000  
  279.00  0.0000E+000  
  279.50  0.0000E+000  
  280.00  0.0000E+000  
  280.50  0.0000E+000  
  281.00  0.0000E+000  
  281.50  0.0000E+000  
  282.00  0.0000E+000  
  282.50  0.0000E+000  
  283.00  0.0000E+000  
  283.50  0.0000E+000  
  284.00  0.0000E+000  
  284.50  0.0000E+000  
  285.00  0.0000E+000  
  285.50  0.0000E+000  
  286.00  0.0000E+000  
  286.50  0.0000E+000  
  287.00  0.0000E+000  
  287.50  0.0000E+000  
  288.00  0.0000E+000  
  288.50  0.0000E+000  
  289.00  0.0000E+000  
  289.50  0.0000E+000  
  290.00  0.0000E+000  
  290.50  0.0000E+000  
  291.00  0.0000E+000  
  291.50  0.0000E+000  
  292.00  0.0000E+000  
  292.50  0.0000E+000  
  293.00  0.0000E+000  
  293.50  0.0000E+000  
  294.00  0.0000E+000  
  294.50  0.0000E+000  
  295.00  0.0000E+000  
  295.50  0.0000E+000  
  296.00  0.0000E+000  
  296.50  0.0000E+000  
  297.00  0.0000E+000  
  297.50  0.0000E+000  
  298.00  0.0000E+000  
  298.50  0.0000E+000  
  299.00  0.0000E+000  
  299.50  0.0000E+000  
  300.00  8.8285E-006  
  300.50  2.2748E-005  
  301.00  6.3927E-007  
  301.50  0.0000E+000  
  302.00  0.0000E+000  
  302.50  0.0000E+000  
  303.00  0.0000E+000  
  303.50  0.0000E+000  
  304.00  0.0000E+000  
  304.50  0.0000E+000  
  305.00  0.0000E+000  
  305.50  0.0000E+000  
  306.00  0.0000E+000  
  306.50  0.0000E+000  
  307.00  0.0000E+000  
  307.50  0.0000E+000  
  308.00  0.0000E+000  
  308.50  0.0000E+000  
  309.00  0.0000E+000  
  309.50  0.0000E+000  
  310.00  1.4060E-005  
  310.50  4.3209E-005  
  311.00  0.0000E+000  
  311.50  0.0000E+000  
  312.00  0.0000E+000  
  312.50  0.0000E+000  
  313.00  0.0000E+000  
  313.50  0.0000E+000  
  314.00  0.0000E+000  
  314.50  0.0000E+000  
  315.00  0.0000E+000  
  315.50  0.0000E+000  
  316.00  0.0000E+000  
  316.50  0.0000E+000  
  317.00  0.0000E+000  
  317.50  3.4982E-005  
  318.00  4.1509E-005  
  318.50  9.8962E-005  
  319.00  1.3810E-004  
  319.50  1.4481E-004  
  320.00  1.6343E-004  
  320.50  9.6812E-005  
  321.00  3.5979E-005  
  321.50  8.1364E-006  
  322.00  0.0000E+000  
  322.50  0.0000E+000  
  323.00  0.0000E+000  
  323.50  0.0000E+000  
  324.00  0.0000E+000  
  324.50  1.9565E-005  
  325.00  8.5853E-005  
  325.50  1.2415E-004  
  326.00  7.9751E-005  
  326.50  9.2903E-006  
  327.00  0.0000E+000  
  327.50  0.0000E+000  
  328.00  3.5107E-006  
  328.50  1.4166E-004  
  329.00  2.0744E-004  
  329.50  2.0324E-004  
  330.00  1.2091E-004  
  330.50  6.2144E-005  
  331.00  1.0060E-005  
  331.50  0.0000E+000  
  332.00  0.0000E+000  
  332.50  0.0000E+000  
  333.00  0.0000E+000  
  333.50  0.0000E+000  
  334.00  0.0000E+000  
  334.50  1.0519E-004  
  335.00  1.8694E-004  
  335.50  2.2875E-004  
  336.00  2.0261E-004  
  336.50  9.3158E-005  
  337.00  9.0798E-006  
  337.50  0.0000E+000  
  338.00  0.0000E+000  
  338.50  0.0000E+000  
  339.00  0.0000E+000  
  339.50  0.0000E+000  
  340.00  0.0000E+000  
  340.50  0.0000E+000  
  341.00  0.0000E+000  
  341.50  1.4719E-005  
  342.00  7.9352E-005  
  342.50  1.0167E-004  
  343.00  9.9169E-005  
  343.50  5.7592E-005  
  344.00  1.0735E-005  
  344.50  1.7591E-007  
  345.00  3.8294E-005  
  345.50  1.1251E-004  
  346.00  1.5200E-004  
  346.50  1.9584E-004  
  347.00  1.4223E-004  
  347.50  4.5785E-005  
  348.00  4.2279E-007  
  348.50  0.0000E+000  
  349.00  0.0000E+000  
  349.50  0.0000E+000  
  350.00  5.6298E-005  
  350.50  3.4505E-005  
  351.00  0.0000E+000  
  351.50  9.3733E-006  
  352.00  7.1209E-005  
  352.50  1.0937E-004  
  353.00  8.4118E-005  
  353.50  4.5212E-005  
  354.00  0.0000E+000  
  354.50  2.4008E-006  
  355.00  2.9369E-005  
  355.50  7.6223E-006  
  356.00  1.0538E-005  
  356.50  3.1480E-006  
  357.00  0.0000E+000  
  357.50  0.0000E+000  
  358.00  0.0000E+000  
  358.50  6.8088E-006  
  359.00  7.9728E-005  
  359.50  1.2157E-004  
  360.00  1.1408E-004  
  360.50  3.6994E-005  
  361.00  0.0000E+000  
  361.50  2.0494E-006  
  362.00  2.6372E-005  
  362.50  8.2035E-005  
  363.00  1.1647E-004  
  363.50  1.0190E-004  
  364.00  1.0026E-004  
  364.50  5.7727E-005  
  365.00  6.1413E-005  
  365.50  2.3244E-005  
  366.00  0.0000E+000  
  366.50  1.2539E-005  
  367.00  1.6558E-005  
  367.50  1.0901E-004  
  368.00  1.7484E-004  
  368.50  1.4417E-004  
  369.00  1.1887E-004  
  369.50  8.1616E-005  
  370.00  4.6711E-005  
  370.50  1.0782E-004  
  371.00  1.1434E-004  
  371.50  1.5834E-004  
  372.00  2.0978E-004  
  372.50  1.2569E-004  
  373.00  1.0329E-004  
  373.50  2.5912E-005  
  374.00  0.0000E+000  
  374.50  0.0000E+000  
  375.00  0.0000E+000  
  375.50  0.0000E+000  
  376.00  0.0000E+000  
  376.50  0.0000E+000  
  377.00  3.1360E-006  
  377.50  6.3764E-005  
  378.00  1.8963E-004  
  378.50  2.2800E-004  
  379.00  2.5176E-004  
  379.50  2.8416E-004  
  380.00  2.7075E-004  
  380.50  2.5185E-004  
  381.00  2.3316E-004  
  381.50  1.7812E-004  
  382.00  1.6553E-004  
  382.50  1.6776E-004  
  383.00  2.4136E-004  
  383.50  2.4156E-004  
  384.00  1.8519E-004  
  384.50  1.1454E-004  
  385.00  8.1240E-005  
  385.50  1.4065E-004  
  386.00  1.5314E-004  
  386.50  1.5597E-004  
  387.00  5.0541E-005  
  387.50  0.0000E+000  
  388.00  0.0000E+000  
  388.50  0.0000E+000  
  389.00  0.0000E+000  
  389.50  1.3001E-005  
  390.00  7.3504E-005  
  390.50  1.5408E-004  
  391.00  2.5411E-004  
  391.50  2.6031E-004  
  392.00  2.2931E-004  
  392.50  1.9669E-004  
  393.00  1.1657E-004  
  393.50  1.1855E-004  
  394.00  1.1528E-004  
  394.50  7.6267E-005  
  395.00  8.3867E-005  
  395.50  8.8805E-005  
  396.00  1.1072E-004  
  396.50  1.4892E-004  
  397.00  2.0691E-004  
  397.50  2.4951E-004  
  398.00  3.0109E-004  
  398.50  3.1641E-004  
  399.00  2.3073E-004  
  399.50  1.7376E-004  
  400.00  1.8236E-004  
  400.50  1.9456E-004  
  401.00  2.0963E-004  
  401.50  2.2367E-004  
  402.00  2.5080E-004  
  402.50  3.2610E-004  
  403.00  3.7624E-004  
  403.50  4.0665E-004  
  404.00  4.4941E-004  
  404.50  4.5462E-004  
  405.00  4.3511E-004  
  405.50  3.6201E-004  
  406.00  2.8793E-004  
  406.50  2.5081E-004  
  407.00  2.5470E-004  
  407.50  2.5542E-004  
  408.00  2.6266E-004  
  408.50  2.6580E-004  
  409.00  2.6614E-004  
  409.50  3.0945E-004  
  410.00  3.3862E-004  
  410.50  3.4524E-004  
  411.00  3.3347E-004  
  411.50  3.2287E-004  
  412.00  3.8544E-004  
  412.50  4.5066E-004  
  413.00  5.0725E-004  
  413.50  4.9690E-004  
  414.00  5.1341E-004  
  414.50  5.5900E-004  
  415.00  6.2217E-004  
  415.50  6.9186E-004  
  416.00  7.3486E-004  
  416.50  7.9111E-004  
  417.00  8.6853E-004  
  417.50  9.4761E-004  
  418.00  1.0229E-003  
  418.50  9.9472E-004  
  419.00  1.0128E-003  
  419.50  1.0598E-003  
  420.00  1.1501E-003  
  420.50  1.3165E-003  
  421.00  1.4270E-003  
  421.50  1.5314E-003  
  422.00  1.6763E-003  
  422.50  1.7971E-003  
  423.00  1.9462E-003  
  423.50  2.1426E-003  
  424.00  2.2805E-003  
  424.50  2.4596E-003  
  425.00  2.6324E-003  
  425.50  2.8035E-003  
  426.00  3.0165E-003  
  426.50  3.2035E-003  
  427.00  3.3824E-003  
  427.50  3.5770E-003  
  428.00  3.8112E-003  
  428.50  4.0635E-003  
  429.00  4.3313E-003  
  429.50  4.5970E-003  
  430.00  4.8652E-003  
  430.50  5.1354E-003  
  431.00  5.4028E-003  
  431.50  5.6832E-003  
  432.00  6.0134E-003  
  432.50  6.4268E-003  
  433.00  6.8285E-003  
  433.50  7.2530E-003  
  434.00  7.6030E-003  
  434.50  7.9843E-003  
  435.00  8.3856E-003  
  435.50  8.8709E-003  
  436.00  9.4029E-003  
  436.50  9.9835E-003  
  437.00  1.0625E-002  
  437.50  1.1283E-002  
  438.00  1.2023E-002  
  438.50  1.2775E-002  
  439.00  1.3618E-002  
  439.50  1.4528E-002  
  440.00  1.5537E-002  
  440.50  1.6561E-002  
  441.00  1.7667E-002  
  441.50  1.8797E-002  
  442.00  2.0156E-002  
  442.50  2.1523E-002  
  443.00  2.2961E-002  
  443.50  2.4387E-002  
  444.00  2.5793E-002  
  444.50  2.7323E-002  
  445.00  2.8743E-002  
  445.50  3.0136E-002  
  446.00  3.1329E-002  
  446.50  3.2405E-002  
  447.00  3.3446E-002  
  447.50  3.4405E-002  
  448.00  3.5200E-002  
  448.50  3.5747E-002  
  449.00  3.6168E-002  
  449.50  3.6352E-002  
  450.00  3.6026E-002  
  450.50  3.5462E-002  
  451.00  3.4558E-002  
  451.50  3.3717E-002  
  452.00  3.2924E-002  
  452.50  3.2110E-002  
  453.00  3.1266E-002  
  453.50  3.0186E-002  
  454.00  2.8904E-002  
  454.50  2.7531E-002  
  455.00  2.6290E-002  
  455.50  2.5290E-002  
  456.00  2.4421E-002  
  456.50  2.3567E-002  
  457.00  2.2885E-002  
  457.50  2.2145E-002  
  458.00  2.1494E-002  
  458.50  2.0911E-002  
  459.00  2.0429E-002  
  459.50  2.0054E-002  
  460.00  1.9814E-002  
  460.50  1.9556E-002  
  461.00  1.9271E-002  
  461.50  1.9078E-002  
  462.00  1.8850E-002  
  462.50  1.8603E-002  
  463.00  1.8384E-002  
  463.50  1.8118E-002  
  464.00  1.7939E-002  
  464.50  1.7711E-002  
  465.00  1.7403E-002  
  465.50  1.6942E-002  
  466.00  1.6532E-002  
  466.50  1.6157E-002  
  467.00  1.5855E-002  
  467.50  1.5561E-002  
  468.00  1.5263E-002  
  468.50  1.4905E-002  
  469.00  1.4507E-002  
  469.50  1.4159E-002  
  470.00  1.3906E-002  
  470.50  1.3737E-002  
  471.00  1.3480E-002  
  471.50  1.3171E-002  
  472.00  1.2921E-002  
  472.50  1.2743E-002  
  473.00  1.2613E-002  
  473.50  1.2502E-002  
  474.00  1.2380E-002  
  474.50  1.2330E-002  
  475.00  1.2294E-002  
  475.50  1.2229E-002  
  476.00  1.2188E-002  
  476.50  1.2189E-002  
  477.00  1.2245E-002  
  477.50  1.2335E-002  
  478.00  1.2483E-002  
  478.50  1.2606E-002  
  479.00  1.2750E-002  
  479.50  1.2822E-002  
  480.00  1.2952E-002  
  480.50  1.3127E-002  
  481.00  1.3309E-002  
  481.50  1.3519E-002  
  482.00  1.3600E-002  
  482.50  1.3714E-002  
  483.00  1.3796E-002  
  483.50  1.3895E-002  
  484.00  1.4039E-002  
  484.50  1.4203E-002  
  485.00  1.4451E-002  
  485.50  1.4703E-002  
  486.00  1.4917E-002  
  486.50  1.5126E-002  
  487.00  1.5341E-002  
  487.50  1.5580E-002  
  488.00  1.5830E-002  
  488.50  1.6109E-002  
  489.00  1.6399E-002  
  489.50  1.6696E-002  
  490.00  1.6940E-002  
  490.50  1.7196E-002  
  491.00  1.7566E-002  
  491.50  1.7942E-002  
  492.00  1.8345E-002  
  492.50  1.8717E-002  
  493.00  1.9013E-002  
  493.50  1.9385E-002  
  494.00  1.9671E-002  
  494.50  2.0030E-002  
  495.00  2.0365E-002  
  495.50  2.0713E-002  
  496.00  2.1114E-002  
  496.50  2.1460E-002  
  497.00  2.1814E-002  
  497.50  2.2141E-002  
  498.00  2.2438E-002  
  498.50  2.2791E-002  
  499.00  2.3153E-002  
  499.50  2.3484E-002  
  500.00  2.3782E-002  
  500.50  2.4009E-002  
  501.00  2.4264E-002  
  501.50  2.4586E-002  
  502.00  2.4875E-002  
  502.50  2.5208E-002  
  503.00  2.5533E-002  
  503.50  2.5881E-002  
  504.00  2.6286E-002  
  504.50  2.6564E-002  
  505.00  2.6817E-002  
  505.50  2.7038E-002  
  506.00  2.7256E-002  
  506.50  2.7525E-002  
  507.00  2.7747E-002  
  507.50  2.7957E-002  
  508.00  2.8257E-002  
  508.50  2.8539E-002  
  509.00  2.8790E-002  
  509.50  2.8979E-002  
  510.00  2.9095E-002  
  510.50  2.9268E-002  
  511.00  2.9512E-002  
  511.50  2.9773E-002  
  512.00  3.0029E-002  
  512.50  3.0233E-002  
  513.00  3.0390E-002  
  513.50  3.0492E-002  
  514.00  3.0578E-002  
  514.50  3.0679E-002  
  515.00  3.0846E-002  
  515.50  3.1043E-002  
  516.00  3.1264E-002  
  516.50  3.1495E-002  
  517.00  3.1711E-002  
  517.50  3.1865E-002  
  518.00  3.1962E-002  
  518.50  3.2065E-002  
  519.00  3.2205E-002  
  519.50  3.2399E-002  
  520.00  3.2578E-002  
  520.50  3.2739E-002  
  521.00  3.2893E-002  
  521.50  3.3110E-002  
  522.00  3.3300E-002  
  522.50  3.3449E-002  
  523.00  3.3596E-002  
  523.50  3.3758E-002  
  524.00  3.3938E-002  
  524.50  3.4135E-002  
  525.00  3.4324E-002  
  525.50  3.4569E-002  
  526.00  3.4729E-002  
  526.50  3.4889E-002  
  527.00  3.5057E-002  
  527.50  3.5314E-002  
  528.00  3.5555E-002  
  528.50  3.5759E-002  
  529.00  3.5913E-002  
  529.50  3.6054E-002  
  530.00  3.6278E-002  
  530.50  3.6538E-002  
  531.00  3.6820E-002  
  531.50  3.7143E-002  
  532.00  3.7412E-002  
  532.50  3.7633E-002  
  533.00  3.7807E-002  
  533.50  3.8015E-002  
  534.00  3.8242E-002  
  534.50  3.8512E-002  
  535.00  3.8784E-002  
  535.50  3.9119E-002  
  536.00  3.9457E-002  
  536.50  3.9714E-002  
  537.00  3.9944E-002  
  537.50  4.0142E-002  
  538.00  4.0383E-002  
  538.50  4.0642E-002  
  539.00  4.0878E-002  
  539.50  4.1139E-002  
  540.00  4.1424E-002  
  540.50  4.1712E-002  
  541.00  4.2006E-002  
  541.50  4.2316E-002  
  542.00  4.2641E-002  
  542.50  4.2929E-002  
  543.00  4.3202E-002  
  543.50  4.3493E-002  
  544.00  4.3791E-002  
  544.50  4.4101E-002  
  545.00  4.4444E-002  
  545.50  4.4816E-002  
  546.00  4.5176E-002  
  546.50  4.5492E-002  
  547.00  4.5806E-002  
  547.50  4.6115E-002  
  548.00  4.6422E-002  
  548.50  4.6724E-002  
  549.00  4.7059E-002  
  549.50  4.7420E-002  
  550.00  4.7712E-002  
  550.50  4.8114E-002  
  551.00  4.8485E-002  
  551.50  4.8911E-002  
  552.00  4.9253E-002  
  552.50  4.9516E-002  
  553.00  4.9790E-002  
  553.50  5.0062E-002  
  554.00  5.0433E-002  
  554.50  5.0802E-002  
  555.00  5.1150E-002  
  555.50  5.1535E-002  
  556.00  5.1925E-002  
  556.50  5.2258E-002  
  557.00  5.2587E-002  
  557.50  5.2892E-002  
  558.00  5.3211E-002  
  558.50  5.3598E-002  
  559.00  5.4007E-002  
  559.50  5.4473E-002  
  560.00  5.4908E-002  
  560.50  5.5276E-002  
  561.00  5.5628E-002  
  561.50  5.6016E-002  
  562.00  5.6374E-002  
  562.50  5.6787E-002  
  563.00  5.7206E-002  
  563.50  5.7616E-002  
  564.00  5.7973E-002  
  564.50  5.8326E-002  
  565.00  5.8709E-002  
  565.50  5.9133E-002  
  566.00  5.9482E-002  
  566.50  5.9835E-002  
  567.00  6.0108E-002  
  567.50  6.0475E-002  
  568.00  6.0829E-002  
  568.50  6.1304E-002  
  569.00  6.1730E-002  
  569.50  6.2108E-002  
  570.00  6.2437E-002  
  570.50  6.2809E-002  
  571.00  6.3287E-002  
  571.50  6.3741E-002  
  572.00  6.4157E-002  
  572.50  6.4522E-002  
  573.00  6.4897E-002  
  573.50  6.5281E-002  
  574.00  6.5660E-002  
  574.50  6.6060E-002  
  575.00  6.6527E-002  
  575.50  6.7074E-002  
  576.00  6.7469E-002  
  576.50  6.7816E-002  
  577.00  6.8120E-002  
  577.50  6.8551E-002  
  578.00  6.9030E-002  
  578.50  6.9535E-002  
  579.00  6.9967E-002  
  579.50  7.0392E-002  
  580.00  7.0766E-002  
  580.50  7.1212E-002  
  581.00  7.1731E-002  
  581.50  7.2191E-002  
  582.00  7.2550E-002  
  582.50  7.2893E-002  
  583.00  7.3315E-002  
  583.50  7.3781E-002  
  584.00  7.4253E-002  
  584.50  7.4745E-002  
  585.00  7.5195E-002  
  585.50  7.5537E-002  
  586.00  7.5784E-002  
  586.50  7.6021E-002  
  587.00  7.6246E-002  
  587.50  7.6670E-002  
  588.00  7.7135E-002  
  588.50  7.7751E-002  
  589.00  7.8202E-002  
  589.50  7.8552E-002  
  590.00  7.8956E-002  
  590.50  7.9369E-002  
  591.00  7.9731E-002  
  591.50  8.0130E-002  
  592.00  8.0490E-002  
  592.50  8.0948E-002  
  593.00  8.1305E-002  
  593.50  8.1406E-002  
  594.00  8.1512E-002  
  594.50  8.1750E-002  
  595.00  8.2132E-002  
  595.50  8.2427E-002  
  596.00  8.2558E-002  
  596.50  8.2637E-002  
  597.00  8.2819E-002  
  597.50  8.2981E-002  
  598.00  8.3289E-002  
  598.50  8.3549E-002  
  599.00  8.3770E-002  
  599.50  8.3859E-002  
  600.00  8.3930E-002  
  600.50  8.4115E-002  
  601.00  8.4296E-002  
  601.50  8.4412E-002  
  602.00  8.4570E-002  
  602.50  8.4713E-002  
  603.00  8.4886E-002  
  603.50  8.4858E-002  
  604.00  8.4744E-002  
  604.50  8.4592E-002  
  605.00  8.4534E-002  
  605.50  8.4665E-002  
  606.00  8.4892E-002  
  606.50  8.5160E-002  
  607.00  8.5220E-002  
  607.50  8.5151E-002  
  608.00  8.5076E-002  
  608.50  8.5055E-002  
  609.00  8.5010E-002  
  609.50  8.4809E-002  
  610.00  8.4733E-002  
  610.50  8.4565E-002  
  611.00  8.4503E-002  
  611.50  8.4411E-002  
  612.00  8.4425E-002  
  612.50  8.4401E-002  
  613.00  8.4311E-002  
  613.50  8.4125E-002  
  614.00  8.4001E-002  
  614.50  8.3838E-002  
  615.00  8.3631E-002  
  615.50  8.3403E-002  
  616.00  8.3136E-002  
  616.50  8.2813E-002  
  617.00  8.2538E-002  
  617.50  8.2321E-002  
  618.00  8.2141E-002  
  618.50  8.1982E-002  
  619.00  8.1616E-002  
  619.50  8.1325E-002  
  620.00  8.1004E-002  
  620.50  8.0825E-002  
  621.00  8.0608E-002  
  621.50  8.0191E-002  
  622.00  7.9688E-002  
  622.50  7.9229E-002  
  623.00  7.8958E-002  
  623.50  7.8700E-002  
  624.00  7.8379E-002  
  624.50  7.7934E-002  
  625.00  7.7580E-002  
  625.50  7.7129E-002  
  626.00  7.6699E-002  
  626.50  7.6309E-002  
  627.00  7.6029E-002  
  627.50  7.5727E-002  
  628.00  7.5333E-002  
  628.50  7.4909E-002  
  629.00  7.4549E-002  
  629.50  7.4152E-002  
  630.00  7.3819E-002  
  630.50  7.3361E-002  
  631.00  7.2805E-002  
  631.50  7.2232E-002  
  632.00  7.1665E-002  
  632.50  7.1212E-002  
  633.00  7.0716E-002  
  633.50  7.0248E-002  
  634.00  6.9908E-002  
  634.50  6.9610E-002  
  635.00  6.9049E-002  
  635.50  6.8348E-002  
  636.00  6.7621E-002  
  636.50  6.7087E-002  
  637.00  6.6650E-002  
  637.50  6.6134E-002  
  638.00  6.5705E-002  
  638.50  6.5174E-002  
  639.00  6.4532E-002  
  639.50  6.3982E-002  
  640.00  6.3423E-002  
  640.50  6.2897E-002  
  641.00  6.2301E-002  
  641.50  6.1843E-002  
  642.00  6.1363E-002  
  642.50  6.0870E-002  
  643.00  6.0194E-002  
  643.50  5.9558E-002  
  644.00  5.8988E-002  
  644.50  5.8454E-002  
  645.00  5.7989E-002  
  645.50  5.7457E-002  
  646.00  5.6877E-002  
  646.50  5.6309E-002  
  647.00  5.5816E-002  
  647.50  5.5325E-002  
  648.00  5.4648E-002  
  648.50  5.3925E-002  
  649.00  5.3192E-002  
  649.50  5.2594E-002  
  650.00  5.1977E-002  
  650.50  5.1420E-002  
  651.00  5.0863E-002  
  651.50  5.0288E-002  
  652.00  4.9731E-002  
  652.50  4.9044E-002  
  653.00  4.8454E-002  
  653.50  4.7788E-002  
  654.00  4.7341E-002  
  654.50  4.6821E-002  
  655.00  4.6318E-002  
  655.50  4.5707E-002  
  656.00  4.5124E-002  
  656.50  4.4696E-002  
  657.00  4.4241E-002  
  657.50  4.3760E-002  
  658.00  4.3247E-002  
  658.50  4.2813E-002  
  659.00  4.2149E-002  
  659.50  4.1400E-002  
  660.00  4.0797E-002  
  660.50  4.0405E-002  
  661.00  3.9941E-002  
  661.50  3.9381E-002  
  662.00  3.8833E-002  
  662.50  3.8438E-002  
  663.00  3.8041E-002  
  663.50  3.7485E-002  
  664.00  3.6824E-002  
  664.50  3.6127E-002  
  665.00  3.5640E-002  
  665.50  3.5233E-002  
  666.00  3.4763E-002  
  666.50  3.4153E-002  
  667.00  3.3639E-002  
  667.50  3.3296E-002  
  668.00  3.2990E-002  
  668.50  3.2544E-002  
  669.00  3.1959E-002  
  669.50  3.1440E-002  
  670.00  3.0956E-002  
  670.50  3.0529E-002  
  671.00  3.0158E-002  
  671.50  2.9787E-002  
  672.00  2.9324E-002  
  672.50  2.8850E-002  
  673.00  2.8275E-002  
  673.50  2.7849E-002  
  674.00  2.7387E-002  
  674.50  2.7072E-002  
  675.00  2.6734E-002  
  675.50  2.6446E-002  
  676.00  2.6065E-002  
  676.50  2.5603E-002  
  677.00  2.5046E-002  
  677.50  2.4555E-002  
  678.00  2.4098E-002  
  678.50  2.3678E-002  
  679.00  2.3343E-002  
  679.50  2.3012E-002  
  680.00  2.2796E-002  
  680.50  2.2478E-002  
  681.00  2.2219E-002  
  681.50  2.1795E-002  
  682.00  2.1410E-002  
  682.50  2.1029E-002  
  683.00  2.0600E-002  
  683.50  2.0198E-002  
  684.00  1.9894E-002  
  684.50  1.9664E-002  
  685.00  1.9380E-002  
  685.50  1.9039E-002  
  686.00  1.8862E-002  
  686.50  1.8621E-002  
  687.00  1.8307E-002  
  687.50  1.7956E-002  
  688.00  1.7724E-002  
  688.50  1.7469E-002  
  689.00  1.7191E-002  
  689.50  1.6830E-002  
  690.00  1.6508E-002  
  690.50  1.6157E-002  
  691.00  1.5892E-002  
  691.50  1.5637E-002  
  692.00  1.5368E-002  
  692.50  1.5087E-002  
  693.00  1.4843E-002  
  693.50  1.4688E-002  
  694.00  1.4499E-002  
  694.50  1.4292E-002  
  695.00  1.4115E-002  
  695.50  1.3896E-002  
  696.00  1.3569E-002  
  696.50  1.3279E-002  
  697.00  1.3023E-002  
  697.50  1.2867E-002  
  698.00  1.2627E-002  
  698.50  1.2530E-002  
  699.00  1.2400E-002  
  699.50  1.2232E-002  
  700.00  1.1948E-002  
  700.50  1.1713E-002  
  701.00  1.1526E-002  
  701.50  1.1296E-002  
  702.00  1.1100E-002  
  702.50  1.0969E-002  
  703.00  1.0914E-002  
  703.50  1.0789E-002  
  704.00  1.0640E-002  
  704.50  1.0442E-002  
  705.00  1.0240E-002  
  705.50  9.9520E-003  
  706.00  9.7137E-003  
  706.50  9.5456E-003  
  707.00  9.4920E-003  
  707.50  9.4137E-003  
  708.00  9.3394E-003  
  708.50  9.1756E-003  
  709.00  9.0671E-003  
  709.50  8.9058E-003  
  710.00  8.7139E-003  
  710.50  8.5049E-003  
  711.00  8.3859E-003  
  711.50  8.3236E-003  
  712.00  8.1590E-003  
  712.50  8.0029E-003  
  713.00  7.8513E-003  
  713.50  7.7455E-003  
  714.00  7.6131E-003  
  714.50  7.4134E-003  
  715.00  7.1904E-003  
  715.50  6.9796E-003  
  716.00  6.7563E-003  
  716.50  6.6190E-003  
  717.00  6.6592E-003  
  717.50  6.7472E-003  
  718.00  6.7137E-003  
  718.50  6.5655E-003  
  719.00  6.4620E-003  
  719.50  6.3938E-003  
  720.00  6.2339E-003  
  720.50  6.0160E-003  
  721.00  5.8909E-003  
  721.50  5.8052E-003  
  722.00  5.6575E-003  
  722.50  5.4203E-003  
  723.00  5.3112E-003  
  723.50  5.3296E-003  
  724.00  5.3469E-003  
  724.50  5.2131E-003  
  725.00  5.0404E-003  
  725.50  4.8997E-003  
  726.00  4.9654E-003  
  726.50  4.9453E-003  
  727.00  4.8843E-003  
  727.50  4.7315E-003  
  728.00  4.6927E-003  
  728.50  4.6619E-003  
  729.00  4.6617E-003  
  729.50  4.5959E-003  
  730.00  4.5203E-003  
  730.50  4.4745E-003  
  731.00  4.4071E-003  
  731.50  4.3160E-003  
  732.00  4.2860E-003  
  732.50  4.2497E-003  
  733.00  4.1549E-003  
  733.50  3.9986E-003  
  734.00  3.9824E-003  
  734.50  4.0101E-003  
  735.00  3.9772E-003  
  735.50  3.7913E-003  
  736.00  3.5325E-003  
  736.50  3.3472E-003  
  737.00  3.3101E-003  
  737.50  3.3821E-003  
  738.00  3.4399E-003  
  738.50  3.4907E-003  
  739.00  3.4796E-003  
  739.50  3.5236E-003  
  740.00  3.4462E-003  
  740.50  3.3582E-003  
  741.00  3.2187E-003  
  741.50  3.1222E-003  
  742.00  3.0213E-003  
  742.50  2.9091E-003  
  743.00  2.8674E-003  
  743.50  2.8162E-003  
  744.00  2.7814E-003  
  744.50  2.8096E-003  
  745.00  2.8279E-003  
  745.50  2.7302E-003  
  746.00  2.5669E-003  
  746.50  2.5167E-003  
  747.00  2.4762E-003  
  747.50  2.5470E-003  
  748.00  2.5056E-003  
  748.50  2.4487E-003  
  749.00  2.2110E-003  
  749.50  2.1866E-003  
  750.00  2.2149E-003  
  750.50  1.9109E-003  
  751.00  1.5385E-003  
  751.50  1.4513E-003  
  752.00  1.8705E-003  
  752.50  2.1062E-003  
  753.00  2.2720E-003  
  753.50  2.2695E-003  
  754.00  2.1137E-003  
  754.50  2.0690E-003  
  755.00  2.1339E-003  
  755.50  2.1169E-003  
  756.00  2.0473E-003  
  756.50  1.9033E-003  
  757.00  1.8338E-003  
  757.50  1.8566E-003  
  758.00  1.8684E-003  
  758.50  1.7130E-003  
  759.00  1.6285E-003  
  759.50  1.6367E-003  
  760.00  1.7051E-003  
  760.50  1.6359E-003  
  761.00  1.5257E-003  
  761.50  1.4776E-003  
  762.00  1.4828E-003  
  762.50  1.6325E-003  
  763.00  1.6386E-003  
  763.50  1.5481E-003  
  764.00  1.4958E-003  
  764.50  1.4501E-003  
  765.00  1.4746E-003  
  765.50  1.4542E-003  
  766.00  1.4469E-003  
  766.50  1.3404E-003  
  767.00  1.4350E-003  
  767.50  1.4778E-003  
  768.00  1.3877E-003  
  768.50  1.2467E-003  
  769.00  1.1986E-003  
  769.50  1.1258E-003  
  770.00  1.0583E-003  
  770.50  1.1035E-003  
  771.00  1.2245E-003  
  771.50  1.3141E-003  
  772.00  1.2965E-003  
  772.50  1.1366E-003  
  773.00  1.0074E-003  
  773.50  9.1386E-004  
  774.00  8.7997E-004  
  774.50  8.2946E-004  
  775.00  8.8783E-004  
  775.50  9.8584E-004  
  776.00  9.2725E-004  
  776.50  7.6407E-004  
  777.00  6.6692E-004  
  777.50  7.1156E-004  
  778.00  7.8081E-004  
  778.50  7.3328E-004  
  779.00  7.4000E-004  
  779.50  7.7801E-004  
  780.00  7.5592E-004  
  780.50  8.3121E-004  
  781.00  9.3044E-004  
  781.50  9.3087E-004  
  782.00  8.3392E-004  
  782.50  8.2057E-004  
  783.00  8.8236E-004  
  783.50  7.1255E-004  
  784.00  6.5627E-004  
  784.50  6.5497E-004  
  785.00  6.6272E-004  
  785.50  6.5180E-004  
  786.00  6.8267E-004  
  786.50  7.2692E-004  
  787.00  8.2616E-004  
  787.50  8.1570E-004  
  788.00  7.7398E-004  
  788.50  7.0145E-004  
  789.00  5.1468E-004  
  789.50  3.2253E-004  
  790.00  1.8947E-004  
  790.50  2.7310E-004  
  791.00  4.7048E-004  
  791.50  6.6247E-004  
  792.00  7.2537E-004  
  792.50  6.4265E-004  
  793.00  5.5069E-004  
  793.50  4.1350E-004  
  794.00  4.4249E-004  
  794.50  2.9210E-004  
  795.00  2.0574E-004  
  795.50  2.7569E-004  
  796.00  6.0702E-004  
  796.50  6.3720E-004  
  797.00  6.8257E-004  
  797.50  8.1785E-004  
  798.00  8.7361E-004  
  798.50  7.1312E-004  
  799.00  6.5703E-004  
  799.50  7.2155E-004  
  800.00  6.5973E-004  
  800.50  4.7397E-004  
  801.00  2.8322E-004  
  801.50  9.2223E-005  
  802.00  1.7602E-004  
  802.50  3.7642E-004  
  803.00  2.1853E-004  
  803.50  1.6819E-004  
  804.00  2.1672E-004  
  804.50  3.2509E-004  
  805.00  2.4685E-004  
  805.50  7.3804E-005  
  806.00  3.9729E-005  
  806.50  3.5058E-004  
  807.00  6.6932E-004  
  807.50  5.7644E-004  
  808.00  3.1275E-004  
  808.50  1.8201E-004  
  809.00  1.9247E-004  
  809.50  4.8583E-005  
  810.00  1.8258E-004  
  810.50  1.5903E-004  
  811.00  0.0000E+000  
  811.50  0.0000E+000  
  812.00  0.0000E+000  
  812.50  3.2103E-005  
  813.00  5.7128E-005  
  813.50  7.7541E-005  
  814.00  0.0000E+000  
  814.50  0.0000E+000  
  815.00  0.0000E+000  
  815.50  5.4508E-005  
  816.00  3.0570E-004  
  816.50  1.7489E-004  
  817.00  1.9526E-004  
  817.50  2.7436E-004  
  818.00  1.0436E-004  
  818.50  4.6908E-005  
  819.00  5.0730E-006  
  819.50  1.5843E-006  
  820.00  0.0000E+000  
  820.50  0.0000E+000  
  821.00  0.0000E+000  
  821.50  0.0000E+000  
  822.00  8.0311E-005  
  822.50  1.3541E-004  
  823.00  0.0000E+000  
  823.50  0.0000E+000  
  824.00  0.0000E+000  
  824.50  1.0387E-004  
  825.00  0.0000E+000  
  825.50  0.0000E+000  
  826.00  0.0000E+000  
  826.50  0.0000E+000  
  827.00  0.0000E+000  
  827.50  1.2370E-004  
  828.00  2.4929E-004  
  828.50  1.1207E-004  
  829.00  1.9652E-004  
  829.50  2.2395E-004  
  830.00  7.1074E-005  
  830.50  0.0000E+000  
  831.00  0.0000E+000  
  831.50  0.0000E+000  
  832.00  1.6392E-004  
  832.50  4.8588E-004  
  833.00  2.4099E-004  
  833.50  3.6899E-006  
  834.00  7.7713E-006  
  834.50  3.1700E-005  
  835.00  0.0000E+000  
  835.50  0.0000E+000  
  836.00  0.0000E+000  
  836.50  5.7345E-005  
  837.00  2.1001E-005  
  837.50  0.0000E+000  
  838.00  0.0000E+000  
  838.50  0.0000E+000  
  839.00  0.0000E+000  
  839.50  0.0000E+000  
  840.00  0.0000E+000  
  840.50  0.0000E+000  
  841.00  0.0000E+000  
  841.50  0.0000E+000  
  842.00  1.0972E-004  
  842.50  8.2637E-005  
  843.00  0.0000E+000  
  843.50  0.0000E+000  
  844.00  0.0000E+000  
  844.50  0.0000E+000  
  845.00  0.0000E+000  
  845.50  0.0000E+000  
  846.00  0.0000E+000  
  846.50  0.0000E+000  
  847.00  0.0000E+000  
  847.50  0.0000E+000  
  848.00  3.3352E-005  
  848.50  9.1970E-005  
  849.00  0.0000E+000  
  849.50  0.0000E+000  
  850.00  0.0000E+000  
  850.50  0.0000E+000  
  851.00  0.0000E+000  
  851.50  0.0000E+000  
  852.00  0.0000E+000  
  852.50  0.0000E+000  
  853.00  0.0000E+000  
  853.50  0.0000E+000  
  854.00  0.0000E+000  
  854.50  0.0000E+000  
  855.00  0.0000E+000  
  855.50  0.0000E+000  
  856.00  0.0000E+000  
  856.50  0.0000E+000  
  857.00  0.0000E+000  
  857.50  0.0000E+000  
  858.00  0.0000E+000  
  858.50  0.0000E+000  
  859.00  0.0000E+000  
  859.50  0.0000E+000  
  860.00  3.2431E-005  
  860.50  5.0110E-006  
  861.00  7.7166E-006  
  861.50  0.0000E+000  
  862.00  0.0000E+000  
  862.50  0.0000E+000  
  863.00  0.0000E+000  
  863.50  0.0000E+000  
  864.00  0.0000E+000  
  864.50  0.0000E+000  
  865.00  0.0000E+000  
  865.50  0.0000E+000  
  866.00  0.0000E+000  
  866.50  0.0000E+000  
  867.00  3.5723E-005  
  867.50  8.0919E-005  
  868.00  2.3355E-005  
  868.50  0.0000E+000  
  869.00  0.0000E+000  
  869.50  0.0000E+000  
  870.00  0.0000E+000  
  870.50  0.0000E+000  
  871.00  0.0000E+000  
  871.50  2.5512E-004  
  872.00  1.1871E-004  
  872.50  0.0000E+000  
  873.00  0.0000E+000  
  873.50  0.0000E+000  
  874.00  0.0000E+000  
  874.50  0.0000E+000  
  875.00  0.0000E+000  
  875.50  0.0000E+000  
  876.00  0.0000E+000  
  876.50  0.0000E+000  
  877.00  0.0000E+000  
  877.50  0.0000E+000  
  878.00  0.0000E+000  
  878.50  0.0000E+000  
  879.00  0.0000E+000  
  879.50  0.0000E+000  
  880.00  0.0000E+000  
  880.50  0.0000E+000  
  881.00  3.9960E-004  
  881.50  9.6991E-004  
  882.00  6.1155E-004  
  882.50  0.0000E+000  
  883.00  0.0000E+000  
  883.50  0.0000E+000  
  884.00  2.4615E-004  
  884.50  2.0662E-004  
  885.00  3.8750E-005  
  885.50  0.0000E+000  
  886.00  0.0000E+000  
  886.50  0.0000E+000  
  887.00  0.0000E+000  
  887.50  9.7866E-005  
  888.00  1.3418E-004  
  888.50  5.0417E-006  
  889.00  3.5327E-005  
  889.50  0.0000E+000  
  890.00  0.0000E+000  
  890.50  0.0000E+000  
  891.00  0.0000E+000  
  891.50  0.0000E+000  
  892.00  0.0000E+000  
  892.50  0.0000E+000  
  893.00  0.0000E+000  
  893.50  0.0000E+000  
  894.00  0.0000E+000  
  894.50  1.6671E-004  
  895.00  5.4874E-004  
  895.50  4.6237E-004  
  896.00  3.7492E-004  
  896.50  2.6049E-004  
  897.00  3.7254E-004  
  897.50  0.0000E+000  
  898.00  0.0000E+000  
  898.50  0.0000E+000  
  899.00  0.0000E+000  
  899.50  0.0000E+000  
