
# From lspdd.org
# 
# Name: DEL Dals 4008MINIFR Domestique
# Indice spectral Valeur 
# MSI 0.28 
# SLI 0.47 
# IPI 0.67 
# Pourcentage de bleu 17.4 
# Caractéristique Valeur 
# CCT calculée (K) 2735 
# CCT du fabricant (K) 3000 
# Tension (V) 12 
# Puissance (W) 1.7 
# Efficacité lumineuse (Lum/W) 59.0 
#
# Image: '/app/system/img_1s/2718/medium_image1.JPG?1464613504'
# 

  273.00  0.0000E+000  
  273.50  0.0000E+000  
  274.00  0.0000E+000  
  274.50  0.0000E+000  
  275.00  0.0000E+000  
  275.50  0.0000E+000  
  276.00  0.0000E+000  
  276.50  0.0000E+000  
  277.00  0.0000E+000  
  277.50  0.0000E+000  
  278.00  0.0000E+000  
  278.50  0.0000E+000  
  279.00  0.0000E+000  
  279.50  0.0000E+000  
  280.00  0.0000E+000  
  280.50  0.0000E+000  
  281.00  0.0000E+000  
  281.50  0.0000E+000  
  282.00  0.0000E+000  
  282.50  0.0000E+000  
  283.00  0.0000E+000  
  283.50  0.0000E+000  
  284.00  0.0000E+000  
  284.50  0.0000E+000  
  285.00  0.0000E+000  
  285.50  0.0000E+000  
  286.00  0.0000E+000  
  286.50  0.0000E+000  
  287.00  0.0000E+000  
  287.50  0.0000E+000  
  288.00  0.0000E+000  
  288.50  0.0000E+000  
  289.00  0.0000E+000  
  289.50  0.0000E+000  
  290.00  0.0000E+000  
  290.50  0.0000E+000  
  291.00  0.0000E+000  
  291.50  0.0000E+000  
  292.00  0.0000E+000  
  292.50  0.0000E+000  
  293.00  0.0000E+000  
  293.50  0.0000E+000  
  294.00  0.0000E+000  
  294.50  0.0000E+000  
  295.00  0.0000E+000  
  295.50  0.0000E+000  
  296.00  0.0000E+000  
  296.50  0.0000E+000  
  297.00  0.0000E+000  
  297.50  0.0000E+000  
  298.00  0.0000E+000  
  298.50  0.0000E+000  
  299.00  0.0000E+000  
  299.50  0.0000E+000  
  300.00  1.4174E-005  
  300.50  3.4243E-005  
  301.00  1.9776E-006  
  301.50  0.0000E+000  
  302.00  0.0000E+000  
  302.50  0.0000E+000  
  303.00  0.0000E+000  
  303.50  0.0000E+000  
  304.00  0.0000E+000  
  304.50  0.0000E+000  
  305.00  0.0000E+000  
  305.50  0.0000E+000  
  306.00  0.0000E+000  
  306.50  0.0000E+000  
  307.00  0.0000E+000  
  307.50  0.0000E+000  
  308.00  0.0000E+000  
  308.50  0.0000E+000  
  309.00  0.0000E+000  
  309.50  0.0000E+000  
  310.00  0.0000E+000  
  310.50  0.0000E+000  
  311.00  0.0000E+000  
  311.50  0.0000E+000  
  312.00  0.0000E+000  
  312.50  0.0000E+000  
  313.00  0.0000E+000  
  313.50  0.0000E+000  
  314.00  0.0000E+000  
  314.50  0.0000E+000  
  315.00  0.0000E+000  
  315.50  0.0000E+000  
  316.00  0.0000E+000  
  316.50  0.0000E+000  
  317.00  7.2903E-006  
  317.50  4.4764E-005  
  318.00  8.4486E-005  
  318.50  1.2667E-004  
  319.00  1.4717E-004  
  319.50  1.0692E-004  
  320.00  4.8993E-005  
  320.50  0.0000E+000  
  321.00  0.0000E+000  
  321.50  3.7826E-006  
  322.00  1.5263E-007  
  322.50  0.0000E+000  
  323.00  0.0000E+000  
  323.50  0.0000E+000  
  324.00  0.0000E+000  
  324.50  0.0000E+000  
  325.00  0.0000E+000  
  325.50  0.0000E+000  
  326.00  0.0000E+000  
  326.50  0.0000E+000  
  327.00  0.0000E+000  
  327.50  0.0000E+000  
  328.00  4.2520E-005  
  328.50  1.1699E-004  
  329.00  1.3990E-004  
  329.50  1.3797E-004  
  330.00  5.1592E-005  
  330.50  0.0000E+000  
  331.00  0.0000E+000  
  331.50  0.0000E+000  
  332.00  0.0000E+000  
  332.50  0.0000E+000  
  333.00  0.0000E+000  
  333.50  0.0000E+000  
  334.00  0.0000E+000  
  334.50  1.1256E-004  
  335.00  2.0114E-004  
  335.50  3.0962E-004  
  336.00  3.5230E-004  
  336.50  2.9654E-004  
  337.00  2.4251E-004  
  337.50  1.2772E-004  
  338.00  7.6325E-006  
  338.50  0.0000E+000  
  339.00  8.2416E-006  
  339.50  8.9690E-005  
  340.00  1.4021E-004  
  340.50  9.6041E-005  
  341.00  4.6565E-005  
  341.50  1.8272E-005  
  342.00  8.3467E-006  
  342.50  0.0000E+000  
  343.00  0.0000E+000  
  343.50  0.0000E+000  
  344.00  0.0000E+000  
  344.50  2.6373E-006  
  345.00  9.5458E-005  
  345.50  1.7897E-004  
  346.00  1.9840E-004  
  346.50  2.0873E-004  
  347.00  1.7893E-004  
  347.50  1.0850E-004  
  348.00  3.4785E-005  
  348.50  2.2409E-005  
  349.00  3.4865E-005  
  349.50  8.8734E-005  
  350.00  1.3818E-004  
  350.50  7.8616E-005  
  351.00  0.0000E+000  
  351.50  2.2626E-006  
  352.00  2.2820E-005  
  352.50  5.1097E-005  
  353.00  3.0644E-005  
  353.50  4.5016E-006  
  354.00  0.0000E+000  
  354.50  0.0000E+000  
  355.00  0.0000E+000  
  355.50  4.5454E-005  
  356.00  8.3846E-005  
  356.50  1.0059E-004  
  357.00  7.2298E-005  
  357.50  3.9466E-006  
  358.00  0.0000E+000  
  358.50  0.0000E+000  
  359.00  0.0000E+000  
  359.50  2.4375E-005  
  360.00  8.5802E-005  
  360.50  4.6861E-005  
  361.00  1.9142E-005  
  361.50  1.2751E-005  
  362.00  3.9210E-005  
  362.50  1.0624E-004  
  363.00  1.3716E-004  
  363.50  1.6983E-004  
  364.00  1.8006E-004  
  364.50  1.6030E-004  
  365.00  1.4028E-004  
  365.50  1.0901E-004  
  366.00  6.8643E-005  
  366.50  7.3750E-005  
  367.00  9.4355E-005  
  367.50  7.9285E-005  
  368.00  8.7285E-005  
  368.50  8.8113E-005  
  369.00  5.5340E-005  
  369.50  2.5079E-005  
  370.00  0.0000E+000  
  370.50  0.0000E+000  
  371.00  0.0000E+000  
  371.50  8.2673E-006  
  372.00  2.3375E-005  
  372.50  8.3053E-007  
  373.00  0.0000E+000  
  373.50  0.0000E+000  
  374.00  0.0000E+000  
  374.50  0.0000E+000  
  375.00  0.0000E+000  
  375.50  0.0000E+000  
  376.00  0.0000E+000  
  376.50  5.0023E-005  
  377.00  1.1115E-004  
  377.50  1.4730E-004  
  378.00  1.9137E-004  
  378.50  1.6404E-004  
  379.00  1.5795E-004  
  379.50  1.8477E-004  
  380.00  1.6891E-004  
  380.50  2.1033E-004  
  381.00  2.2371E-004  
  381.50  1.7195E-004  
  382.00  1.6231E-004  
  382.50  1.7186E-004  
  383.00  2.3039E-004  
  383.50  2.4764E-004  
  384.00  1.8818E-004  
  384.50  7.2434E-005  
  385.00  1.3275E-005  
  385.50  7.3005E-006  
  386.00  2.2668E-005  
  386.50  1.1870E-005  
  387.00  0.0000E+000  
  387.50  0.0000E+000  
  388.00  3.2222E-006  
  388.50  1.3314E-005  
  389.00  9.8408E-006  
  389.50  5.6335E-005  
  390.00  8.3682E-005  
  390.50  1.3526E-004  
  391.00  2.0214E-004  
  391.50  2.1999E-004  
  392.00  2.0081E-004  
  392.50  2.0841E-004  
  393.00  1.5160E-004  
  393.50  1.4649E-004  
  394.00  1.6494E-004  
  394.50  1.5471E-004  
  395.00  1.3572E-004  
  395.50  1.1843E-004  
  396.00  9.4733E-005  
  396.50  1.4484E-004  
  397.00  2.4273E-004  
  397.50  2.8136E-004  
  398.00  3.2520E-004  
  398.50  3.3213E-004  
  399.00  3.1911E-004  
  399.50  2.8267E-004  
  400.00  2.8219E-004  
  400.50  3.0559E-004  
  401.00  2.9658E-004  
  401.50  3.0843E-004  
  402.00  2.7590E-004  
  402.50  2.4306E-004  
  403.00  2.6324E-004  
  403.50  3.3023E-004  
  404.00  4.2636E-004  
  404.50  4.3808E-004  
  405.00  4.2474E-004  
  405.50  3.3759E-004  
  406.00  2.9083E-004  
  406.50  3.2042E-004  
  407.00  3.3980E-004  
  407.50  3.2843E-004  
  408.00  3.6395E-004  
  408.50  4.1889E-004  
  409.00  4.7437E-004  
  409.50  5.3128E-004  
  410.00  5.3138E-004  
  410.50  4.8785E-004  
  411.00  4.8389E-004  
  411.50  5.4941E-004  
  412.00  6.5924E-004  
  412.50  7.7687E-004  
  413.00  8.1255E-004  
  413.50  7.6460E-004  
  414.00  7.3951E-004  
  414.50  7.4376E-004  
  415.00  8.3962E-004  
  415.50  9.5779E-004  
  416.00  1.0684E-003  
  416.50  1.1713E-003  
  417.00  1.3037E-003  
  417.50  1.4538E-003  
  418.00  1.6325E-003  
  418.50  1.7298E-003  
  419.00  1.8626E-003  
  419.50  1.9864E-003  
  420.00  2.1493E-003  
  420.50  2.3626E-003  
  421.00  2.5178E-003  
  421.50  2.7099E-003  
  422.00  2.9469E-003  
  422.50  3.1777E-003  
  423.00  3.4205E-003  
  423.50  3.7193E-003  
  424.00  4.0532E-003  
  424.50  4.4547E-003  
  425.00  4.8000E-003  
  425.50  5.1249E-003  
  426.00  5.3871E-003  
  426.50  5.6932E-003  
  427.00  6.0183E-003  
  427.50  6.3972E-003  
  428.00  6.8391E-003  
  428.50  7.3150E-003  
  429.00  7.7885E-003  
  429.50  8.2563E-003  
  430.00  8.7710E-003  
  430.50  9.2904E-003  
  431.00  9.8238E-003  
  431.50  1.0339E-002  
  432.00  1.0825E-002  
  432.50  1.1419E-002  
  433.00  1.2065E-002  
  433.50  1.2815E-002  
  434.00  1.3503E-002  
  434.50  1.4268E-002  
  435.00  1.5032E-002  
  435.50  1.5826E-002  
  436.00  1.6741E-002  
  436.50  1.7643E-002  
  437.00  1.8603E-002  
  437.50  1.9698E-002  
  438.00  2.0862E-002  
  438.50  2.2136E-002  
  439.00  2.3484E-002  
  439.50  2.4787E-002  
  440.00  2.6105E-002  
  440.50  2.7404E-002  
  441.00  2.8615E-002  
  441.50  2.9824E-002  
  442.00  3.1087E-002  
  442.50  3.2253E-002  
  443.00  3.3303E-002  
  443.50  3.4088E-002  
  444.00  3.4660E-002  
  444.50  3.5134E-002  
  445.00  3.5521E-002  
  445.50  3.5825E-002  
  446.00  3.5801E-002  
  446.50  3.5528E-002  
  447.00  3.5017E-002  
  447.50  3.4427E-002  
  448.00  3.3531E-002  
  448.50  3.2503E-002  
  449.00  3.1334E-002  
  449.50  3.0241E-002  
  450.00  2.9045E-002  
  450.50  2.7744E-002  
  451.00  2.6409E-002  
  451.50  2.5088E-002  
  452.00  2.3983E-002  
  452.50  2.2965E-002  
  453.00  2.2081E-002  
  453.50  2.1169E-002  
  454.00  2.0279E-002  
  454.50  1.9442E-002  
  455.00  1.8685E-002  
  455.50  1.8038E-002  
  456.00  1.7502E-002  
  456.50  1.7007E-002  
  457.00  1.6571E-002  
  457.50  1.6137E-002  
  458.00  1.5726E-002  
  458.50  1.5458E-002  
  459.00  1.5140E-002  
  459.50  1.4820E-002  
  460.00  1.4472E-002  
  460.50  1.4138E-002  
  461.00  1.3897E-002  
  461.50  1.3665E-002  
  462.00  1.3407E-002  
  462.50  1.3126E-002  
  463.00  1.2812E-002  
  463.50  1.2440E-002  
  464.00  1.2088E-002  
  464.50  1.1688E-002  
  465.00  1.1316E-002  
  465.50  1.0922E-002  
  466.00  1.0575E-002  
  466.50  1.0275E-002  
  467.00  1.0054E-002  
  467.50  9.8509E-003  
  468.00  9.6744E-003  
  468.50  9.4917E-003  
  469.00  9.2850E-003  
  469.50  9.1203E-003  
  470.00  9.0019E-003  
  470.50  8.9186E-003  
  471.00  8.8167E-003  
  471.50  8.6906E-003  
  472.00  8.5882E-003  
  472.50  8.5637E-003  
  473.00  8.5239E-003  
  473.50  8.5155E-003  
  474.00  8.5160E-003  
  474.50  8.5824E-003  
  475.00  8.6865E-003  
  475.50  8.7770E-003  
  476.00  8.8401E-003  
  476.50  8.9355E-003  
  477.00  9.0215E-003  
  477.50  9.0986E-003  
  478.00  9.2093E-003  
  478.50  9.3331E-003  
  479.00  9.4756E-003  
  479.50  9.6121E-003  
  480.00  9.7515E-003  
  480.50  9.8697E-003  
  481.00  9.9580E-003  
  481.50  1.0065E-002  
  482.00  1.0165E-002  
  482.50  1.0303E-002  
  483.00  1.0493E-002  
  483.50  1.0745E-002  
  484.00  1.1029E-002  
  484.50  1.1257E-002  
  485.00  1.1425E-002  
  485.50  1.1600E-002  
  486.00  1.1799E-002  
  486.50  1.2045E-002  
  487.00  1.2293E-002  
  487.50  1.2555E-002  
  488.00  1.2889E-002  
  488.50  1.3215E-002  
  489.00  1.3569E-002  
  489.50  1.3879E-002  
  490.00  1.4193E-002  
  490.50  1.4546E-002  
  491.00  1.4926E-002  
  491.50  1.5291E-002  
  492.00  1.5645E-002  
  492.50  1.5975E-002  
  493.00  1.6309E-002  
  493.50  1.6684E-002  
  494.00  1.7044E-002  
  494.50  1.7396E-002  
  495.00  1.7760E-002  
  495.50  1.8113E-002  
  496.00  1.8500E-002  
  496.50  1.8800E-002  
  497.00  1.9124E-002  
  497.50  1.9498E-002  
  498.00  1.9898E-002  
  498.50  2.0290E-002  
  499.00  2.0646E-002  
  499.50  2.0972E-002  
  500.00  2.1312E-002  
  500.50  2.1632E-002  
  501.00  2.1975E-002  
  501.50  2.2373E-002  
  502.00  2.2787E-002  
  502.50  2.3165E-002  
  503.00  2.3475E-002  
  503.50  2.3710E-002  
  504.00  2.3947E-002  
  504.50  2.4258E-002  
  505.00  2.4650E-002  
  505.50  2.5074E-002  
  506.00  2.5380E-002  
  506.50  2.5652E-002  
  507.00  2.5876E-002  
  507.50  2.6140E-002  
  508.00  2.6440E-002  
  508.50  2.6709E-002  
  509.00  2.6988E-002  
  509.50  2.7232E-002  
  510.00  2.7525E-002  
  510.50  2.7826E-002  
  511.00  2.8160E-002  
  511.50  2.8410E-002  
  512.00  2.8648E-002  
  512.50  2.8879E-002  
  513.00  2.9109E-002  
  513.50  2.9275E-002  
  514.00  2.9455E-002  
  514.50  2.9703E-002  
  515.00  2.9975E-002  
  515.50  3.0279E-002  
  516.00  3.0519E-002  
  516.50  3.0797E-002  
  517.00  3.1041E-002  
  517.50  3.1215E-002  
  518.00  3.1379E-002  
  518.50  3.1576E-002  
  519.00  3.1781E-002  
  519.50  3.2002E-002  
  520.00  3.2221E-002  
  520.50  3.2496E-002  
  521.00  3.2754E-002  
  521.50  3.2999E-002  
  522.00  3.3132E-002  
  522.50  3.3295E-002  
  523.00  3.3538E-002  
  523.50  3.3843E-002  
  524.00  3.4110E-002  
  524.50  3.4336E-002  
  525.00  3.4592E-002  
  525.50  3.4924E-002  
  526.00  3.5242E-002  
  526.50  3.5549E-002  
  527.00  3.5841E-002  
  527.50  3.6138E-002  
  528.00  3.6406E-002  
  528.50  3.6682E-002  
  529.00  3.6970E-002  
  529.50  3.7262E-002  
  530.00  3.7512E-002  
  530.50  3.7764E-002  
  531.00  3.8035E-002  
  531.50  3.8351E-002  
  532.00  3.8648E-002  
  532.50  3.8945E-002  
  533.00  3.9275E-002  
  533.50  3.9628E-002  
  534.00  3.9993E-002  
  534.50  4.0321E-002  
  535.00  4.0685E-002  
  535.50  4.1094E-002  
  536.00  4.1554E-002  
  536.50  4.1870E-002  
  537.00  4.2177E-002  
  537.50  4.2481E-002  
  538.00  4.2876E-002  
  538.50  4.3275E-002  
  539.00  4.3584E-002  
  539.50  4.3838E-002  
  540.00  4.4162E-002  
  540.50  4.4511E-002  
  541.00  4.4908E-002  
  541.50  4.5336E-002  
  542.00  4.5680E-002  
  542.50  4.6037E-002  
  543.00  4.6439E-002  
  543.50  4.6855E-002  
  544.00  4.7228E-002  
  544.50  4.7513E-002  
  545.00  4.7858E-002  
  545.50  4.8276E-002  
  546.00  4.8681E-002  
  546.50  4.9052E-002  
  547.00  4.9389E-002  
  547.50  4.9790E-002  
  548.00  5.0212E-002  
  548.50  5.0596E-002  
  549.00  5.1028E-002  
  549.50  5.1409E-002  
  550.00  5.1760E-002  
  550.50  5.2210E-002  
  551.00  5.2552E-002  
  551.50  5.2963E-002  
  552.00  5.3281E-002  
  552.50  5.3656E-002  
  553.00  5.4060E-002  
  553.50  5.4451E-002  
  554.00  5.4898E-002  
  554.50  5.5293E-002  
  555.00  5.5638E-002  
  555.50  5.5837E-002  
  556.00  5.6155E-002  
  556.50  5.6556E-002  
  557.00  5.7025E-002  
  557.50  5.7518E-002  
  558.00  5.7850E-002  
  558.50  5.8188E-002  
  559.00  5.8559E-002  
  559.50  5.9058E-002  
  560.00  5.9565E-002  
  560.50  5.9903E-002  
  561.00  6.0173E-002  
  561.50  6.0552E-002  
  562.00  6.0944E-002  
  562.50  6.1232E-002  
  563.00  6.1505E-002  
  563.50  6.1780E-002  
  564.00  6.2129E-002  
  564.50  6.2523E-002  
  565.00  6.2847E-002  
  565.50  6.3235E-002  
  566.00  6.3591E-002  
  566.50  6.3832E-002  
  567.00  6.3987E-002  
  567.50  6.4166E-002  
  568.00  6.4429E-002  
  568.50  6.4855E-002  
  569.00  6.5305E-002  
  569.50  6.5618E-002  
  570.00  6.5893E-002  
  570.50  6.6120E-002  
  571.00  6.6461E-002  
  571.50  6.6769E-002  
  572.00  6.7107E-002  
  572.50  6.7388E-002  
  573.00  6.7768E-002  
  573.50  6.8174E-002  
  574.00  6.8496E-002  
  574.50  6.8743E-002  
  575.00  6.8957E-002  
  575.50  6.9211E-002  
  576.00  6.9625E-002  
  576.50  6.9978E-002  
  577.00  7.0403E-002  
  577.50  7.0791E-002  
  578.00  7.1103E-002  
  578.50  7.1561E-002  
  579.00  7.1841E-002  
  579.50  7.2175E-002  
  580.00  7.2413E-002  
  580.50  7.2669E-002  
  581.00  7.3016E-002  
  581.50  7.3375E-002  
  582.00  7.3630E-002  
  582.50  7.3836E-002  
  583.00  7.4049E-002  
  583.50  7.4270E-002  
  584.00  7.4594E-002  
  584.50  7.4857E-002  
  585.00  7.5189E-002  
  585.50  7.5417E-002  
  586.00  7.5652E-002  
  586.50  7.5853E-002  
  587.00  7.6137E-002  
  587.50  7.6518E-002  
  588.00  7.6803E-002  
  588.50  7.7025E-002  
  589.00  7.7185E-002  
  589.50  7.7331E-002  
  590.00  7.7583E-002  
  590.50  7.7887E-002  
  591.00  7.8267E-002  
  591.50  7.8704E-002  
  592.00  7.9018E-002  
  592.50  7.9186E-002  
  593.00  7.9329E-002  
  593.50  7.9548E-002  
  594.00  7.9867E-002  
  594.50  8.0198E-002  
  595.00  8.0403E-002  
  595.50  8.0398E-002  
  596.00  8.0430E-002  
  596.50  8.0456E-002  
  597.00  8.0732E-002  
  597.50  8.0976E-002  
  598.00  8.1185E-002  
  598.50  8.1231E-002  
  599.00  8.1247E-002  
  599.50  8.1216E-002  
  600.00  8.1255E-002  
  600.50  8.1324E-002  
  601.00  8.1561E-002  
  601.50  8.1802E-002  
  602.00  8.2099E-002  
  602.50  8.2232E-002  
  603.00  8.2360E-002  
  603.50  8.2256E-002  
  604.00  8.2195E-002  
  604.50  8.2073E-002  
  605.00  8.1981E-002  
  605.50  8.1921E-002  
  606.00  8.1912E-002  
  606.50  8.2045E-002  
  607.00  8.2255E-002  
  607.50  8.2416E-002  
  608.00  8.2484E-002  
  608.50  8.2463E-002  
  609.00  8.2348E-002  
  609.50  8.2276E-002  
  610.00  8.2250E-002  
  610.50  8.2243E-002  
  611.00  8.2295E-002  
  611.50  8.2407E-002  
  612.00  8.2491E-002  
  612.50  8.2460E-002  
  613.00  8.2264E-002  
  613.50  8.2070E-002  
  614.00  8.1975E-002  
  614.50  8.1780E-002  
  615.00  8.1581E-002  
  615.50  8.1505E-002  
  616.00  8.1516E-002  
  616.50  8.1493E-002  
  617.00  8.1259E-002  
  617.50  8.1048E-002  
  618.00  8.0880E-002  
  618.50  8.0738E-002  
  619.00  8.0565E-002  
  619.50  8.0415E-002  
  620.00  8.0190E-002  
  620.50  7.9893E-002  
  621.00  7.9657E-002  
  621.50  7.9454E-002  
  622.00  7.9266E-002  
  622.50  7.9019E-002  
  623.00  7.8801E-002  
  623.50  7.8596E-002  
  624.00  7.8408E-002  
  624.50  7.8238E-002  
  625.00  7.8015E-002  
  625.50  7.7738E-002  
  626.00  7.7348E-002  
  626.50  7.7009E-002  
  627.00  7.6825E-002  
  627.50  7.6522E-002  
  628.00  7.6274E-002  
  628.50  7.5874E-002  
  629.00  7.5642E-002  
  629.50  7.5474E-002  
  630.00  7.5255E-002  
  630.50  7.4930E-002  
  631.00  7.4453E-002  
  631.50  7.4103E-002  
  632.00  7.3900E-002  
  632.50  7.3643E-002  
  633.00  7.3296E-002  
  633.50  7.2840E-002  
  634.00  7.2518E-002  
  634.50  7.2325E-002  
  635.00  7.2077E-002  
  635.50  7.1659E-002  
  636.00  7.1256E-002  
  636.50  7.0739E-002  
  637.00  7.0318E-002  
  637.50  6.9772E-002  
  638.00  6.9313E-002  
  638.50  6.8984E-002  
  639.00  6.8671E-002  
  639.50  6.8230E-002  
  640.00  6.7756E-002  
  640.50  6.7334E-002  
  641.00  6.7036E-002  
  641.50  6.6647E-002  
  642.00  6.6067E-002  
  642.50  6.5485E-002  
  643.00  6.4981E-002  
  643.50  6.4603E-002  
  644.00  6.4316E-002  
  644.50  6.3825E-002  
  645.00  6.3268E-002  
  645.50  6.2708E-002  
  646.00  6.2235E-002  
  646.50  6.1811E-002  
  647.00  6.1362E-002  
  647.50  6.1013E-002  
  648.00  6.0532E-002  
  648.50  5.9983E-002  
  649.00  5.9347E-002  
  649.50  5.8860E-002  
  650.00  5.8305E-002  
  650.50  5.7745E-002  
  651.00  5.7256E-002  
  651.50  5.6811E-002  
  652.00  5.6372E-002  
  652.50  5.5786E-002  
  653.00  5.5229E-002  
  653.50  5.4612E-002  
  654.00  5.4107E-002  
  654.50  5.3582E-002  
  655.00  5.3228E-002  
  655.50  5.2745E-002  
  656.00  5.2226E-002  
  656.50  5.1662E-002  
  657.00  5.1101E-002  
  657.50  5.0698E-002  
  658.00  5.0273E-002  
  658.50  4.9922E-002  
  659.00  4.9340E-002  
  659.50  4.8663E-002  
  660.00  4.7993E-002  
  660.50  4.7454E-002  
  661.00  4.6973E-002  
  661.50  4.6447E-002  
  662.00  4.5879E-002  
  662.50  4.5438E-002  
  663.00  4.5099E-002  
  663.50  4.4658E-002  
  664.00  4.4196E-002  
  664.50  4.3536E-002  
  665.00  4.3075E-002  
  665.50  4.2540E-002  
  666.00  4.2104E-002  
  666.50  4.1590E-002  
  667.00  4.1141E-002  
  667.50  4.0624E-002  
  668.00  3.9953E-002  
  668.50  3.9282E-002  
  669.00  3.8721E-002  
  669.50  3.8289E-002  
  670.00  3.7807E-002  
  670.50  3.7418E-002  
  671.00  3.7092E-002  
  671.50  3.6801E-002  
  672.00  3.6377E-002  
  672.50  3.5960E-002  
  673.00  3.5358E-002  
  673.50  3.4839E-002  
  674.00  3.4300E-002  
  674.50  3.3929E-002  
  675.00  3.3483E-002  
  675.50  3.3019E-002  
  676.00  3.2585E-002  
  676.50  3.2087E-002  
  677.00  3.1511E-002  
  677.50  3.0968E-002  
  678.00  3.0506E-002  
  678.50  3.0166E-002  
  679.00  2.9787E-002  
  679.50  2.9360E-002  
  680.00  2.9086E-002  
  680.50  2.8719E-002  
  681.00  2.8395E-002  
  681.50  2.7795E-002  
  682.00  2.7213E-002  
  682.50  2.6719E-002  
  683.00  2.6335E-002  
  683.50  2.5960E-002  
  684.00  2.5669E-002  
  684.50  2.5397E-002  
  685.00  2.5205E-002  
  685.50  2.4879E-002  
  686.00  2.4561E-002  
  686.50  2.4147E-002  
  687.00  2.3741E-002  
  687.50  2.3324E-002  
  688.00  2.3041E-002  
  688.50  2.2718E-002  
  689.00  2.2403E-002  
  689.50  2.2085E-002  
  690.00  2.1783E-002  
  690.50  2.1483E-002  
  691.00  2.1097E-002  
  691.50  2.0744E-002  
  692.00  2.0435E-002  
  692.50  2.0272E-002  
  693.00  2.0036E-002  
  693.50  1.9760E-002  
  694.00  1.9471E-002  
  694.50  1.9120E-002  
  695.00  1.8821E-002  
  695.50  1.8452E-002  
  696.00  1.8241E-002  
  696.50  1.7963E-002  
  697.00  1.7692E-002  
  697.50  1.7536E-002  
  698.00  1.7319E-002  
  698.50  1.7089E-002  
  699.00  1.6720E-002  
  699.50  1.6492E-002  
  700.00  1.6191E-002  
  700.50  1.5896E-002  
  701.00  1.5658E-002  
  701.50  1.5468E-002  
  702.00  1.5209E-002  
  702.50  1.4947E-002  
  703.00  1.4685E-002  
  703.50  1.4407E-002  
  704.00  1.4080E-002  
  704.50  1.3770E-002  
  705.00  1.3642E-002  
  705.50  1.3525E-002  
  706.00  1.3502E-002  
  706.50  1.3343E-002  
  707.00  1.3139E-002  
  707.50  1.2960E-002  
  708.00  1.2866E-002  
  708.50  1.2777E-002  
  709.00  1.2553E-002  
  709.50  1.2261E-002  
  710.00  1.1914E-002  
  710.50  1.1717E-002  
  711.00  1.1429E-002  
  711.50  1.1295E-002  
  712.00  1.1159E-002  
  712.50  1.1122E-002  
  713.00  1.1005E-002  
  713.50  1.0822E-002  
  714.00  1.0634E-002  
  714.50  1.0468E-002  
  715.00  1.0257E-002  
  715.50  1.0098E-002  
  716.00  9.8399E-003  
  716.50  9.6655E-003  
  717.00  9.5533E-003  
  717.50  9.5977E-003  
  718.00  9.5404E-003  
  718.50  9.3134E-003  
  719.00  9.0424E-003  
  719.50  8.9424E-003  
  720.00  8.8474E-003  
  720.50  8.6218E-003  
  721.00  8.3969E-003  
  721.50  8.3657E-003  
  722.00  8.3398E-003  
  722.50  8.1439E-003  
  723.00  7.8633E-003  
  723.50  7.7388E-003  
  724.00  7.6153E-003  
  724.50  7.5506E-003  
  725.00  7.4240E-003  
  725.50  7.4032E-003  
  726.00  7.3246E-003  
  726.50  7.2276E-003  
  727.00  7.0828E-003  
  727.50  6.8824E-003  
  728.00  6.6792E-003  
  728.50  6.5728E-003  
  729.00  6.5620E-003  
  729.50  6.5308E-003  
  730.00  6.3918E-003  
  730.50  6.2368E-003  
  731.00  6.1460E-003  
  731.50  6.2136E-003  
  732.00  6.2125E-003  
  732.50  6.1235E-003  
  733.00  5.9562E-003  
  733.50  5.8135E-003  
  734.00  5.7532E-003  
  734.50  5.7872E-003  
  735.00  5.7225E-003  
  735.50  5.4617E-003  
  736.00  5.1602E-003  
  736.50  5.0692E-003  
  737.00  5.0650E-003  
  737.50  4.9817E-003  
  738.00  4.9060E-003  
  738.50  4.9877E-003  
  739.00  5.0386E-003  
  739.50  5.0455E-003  
  740.00  4.8703E-003  
  740.50  4.6645E-003  
  741.00  4.4465E-003  
  741.50  4.4166E-003  
  742.00  4.4622E-003  
  742.50  4.4404E-003  
  743.00  4.3957E-003  
  743.50  4.2657E-003  
  744.00  4.1169E-003  
  744.50  3.9984E-003  
  745.00  3.9608E-003  
  745.50  3.9591E-003  
  746.00  3.8973E-003  
  746.50  3.8293E-003  
  747.00  3.7517E-003  
  747.50  3.7574E-003  
  748.00  3.7585E-003  
  748.50  3.7159E-003  
  749.00  3.4950E-003  
  749.50  3.3859E-003  
  750.00  3.3817E-003  
  750.50  3.4492E-003  
  751.00  3.3917E-003  
  751.50  3.3059E-003  
  752.00  3.2290E-003  
  752.50  3.2391E-003  
  753.00  3.2667E-003  
  753.50  3.2807E-003  
  754.00  3.0977E-003  
  754.50  3.0116E-003  
  755.00  2.9064E-003  
  755.50  2.7791E-003  
  756.00  2.7650E-003  
  756.50  2.8289E-003  
  757.00  2.8360E-003  
  757.50  2.7865E-003  
  758.00  2.7446E-003  
  758.50  2.7202E-003  
  759.00  2.6867E-003  
  759.50  2.6430E-003  
  760.00  2.4958E-003  
  760.50  2.3089E-003  
  761.00  2.2398E-003  
  761.50  2.3860E-003  
  762.00  2.4511E-003  
  762.50  2.4062E-003  
  763.00  2.2913E-003  
  763.50  2.3549E-003  
  764.00  2.4765E-003  
  764.50  2.5402E-003  
  765.00  2.4312E-003  
  765.50  2.3004E-003  
  766.00  2.2653E-003  
  766.50  2.0944E-003  
  767.00  2.0438E-003  
  767.50  2.1417E-003  
  768.00  2.2713E-003  
  768.50  2.1486E-003  
  769.00  1.8637E-003  
  769.50  1.7524E-003  
  770.00  1.6681E-003  
  770.50  1.7438E-003  
  771.00  1.8732E-003  
  771.50  2.0214E-003  
  772.00  2.0176E-003  
  772.50  1.8126E-003  
  773.00  1.6243E-003  
  773.50  1.5015E-003  
  774.00  1.4308E-003  
  774.50  1.3510E-003  
  775.00  1.4417E-003  
  775.50  1.4843E-003  
  776.00  1.4133E-003  
  776.50  1.3708E-003  
  777.00  1.2933E-003  
  777.50  1.2892E-003  
  778.00  1.3808E-003  
  778.50  1.3602E-003  
  779.00  1.3207E-003  
  779.50  1.0792E-003  
  780.00  9.7583E-004  
  780.50  1.0726E-003  
  781.00  1.4363E-003  
  781.50  1.6433E-003  
  782.00  1.6441E-003  
  782.50  1.4562E-003  
  783.00  1.3961E-003  
  783.50  1.3127E-003  
  784.00  1.2614E-003  
  784.50  1.1852E-003  
  785.00  1.0791E-003  
  785.50  9.9226E-004  
  786.00  9.3895E-004  
  786.50  8.9404E-004  
  787.00  9.9167E-004  
  787.50  1.0875E-003  
  788.00  1.1094E-003  
  788.50  1.0816E-003  
  789.00  1.0154E-003  
  789.50  9.9454E-004  
  790.00  8.7687E-004  
  790.50  7.8666E-004  
  791.00  8.6988E-004  
  791.50  9.0384E-004  
  792.00  8.6568E-004  
  792.50  8.3985E-004  
  793.00  7.4894E-004  
  793.50  6.0558E-004  
  794.00  5.2890E-004  
  794.50  4.3474E-004  
  795.00  4.7600E-004  
  795.50  4.8906E-004  
  796.00  6.9340E-004  
  796.50  7.9574E-004  
  797.00  8.5249E-004  
  797.50  8.6347E-004  
  798.00  7.7574E-004  
  798.50  7.4430E-004  
  799.00  6.5436E-004  
  799.50  7.5376E-004  
  800.00  6.4078E-004  
  800.50  5.0258E-004  
  801.00  4.9777E-004  
  801.50  4.7634E-004  
  802.00  5.3796E-004  
  802.50  5.8866E-004  
  803.00  5.2657E-004  
  803.50  3.7715E-004  
  804.00  2.8486E-004  
  804.50  2.6140E-004  
  805.00  3.2571E-004  
  805.50  3.3336E-004  
  806.00  1.4163E-004  
  806.50  2.1033E-005  
  807.00  3.3369E-004  
  807.50  6.7264E-004  
  808.00  5.9605E-004  
  808.50  4.4285E-004  
  809.00  4.4034E-004  
  809.50  2.8029E-004  
  810.00  2.3926E-004  
  810.50  1.3842E-004  
  811.00  1.1252E-004  
  811.50  1.4260E-004  
  812.00  4.2122E-004  
  812.50  7.6891E-004  
  813.00  7.7365E-004  
  813.50  5.3364E-004  
  814.00  4.5449E-004  
  814.50  4.6106E-004  
  815.00  4.5318E-004  
  815.50  4.2323E-004  
  816.00  5.2194E-004  
  816.50  5.5835E-004  
  817.00  5.7872E-004  
  817.50  4.6746E-004  
  818.00  1.5978E-004  
  818.50  2.0906E-004  
  819.00  2.7669E-004  
  819.50  2.8632E-004  
  820.00  9.4449E-005  
  820.50  3.3113E-006  
  821.00  2.0990E-004  
  821.50  5.0205E-004  
  822.00  5.9679E-004  
  822.50  7.5746E-004  
  823.00  6.5806E-004  
  823.50  5.3277E-004  
  824.00  5.1112E-004  
  824.50  5.4245E-004  
  825.00  3.0474E-004  
  825.50  2.7346E-004  
  826.00  3.9034E-004  
  826.50  2.5669E-004  
  827.00  0.0000E+000  
  827.50  0.0000E+000  
  828.00  1.2229E-004  
  828.50  1.9931E-005  
  829.00  0.0000E+000  
  829.50  1.6370E-005  
  830.00  1.5284E-004  
  830.50  8.1739E-006  
  831.00  0.0000E+000  
  831.50  1.2352E-004  
  832.00  6.4538E-004  
  832.50  6.9265E-004  
  833.00  3.8981E-004  
  833.50  1.4085E-004  
  834.00  5.0529E-005  
  834.50  0.0000E+000  
  835.00  5.8271E-005  
  835.50  4.1750E-004  
  836.00  6.6904E-004  
  836.50  4.9276E-004  
  837.00  4.7967E-004  
  837.50  5.0876E-004  
  838.00  9.2239E-005  
  838.50  0.0000E+000  
  839.00  0.0000E+000  
  839.50  0.0000E+000  
  840.00  0.0000E+000  
  840.50  0.0000E+000  
  841.00  0.0000E+000  
  841.50  0.0000E+000  
  842.00  0.0000E+000  
  842.50  0.0000E+000  
  843.00  0.0000E+000  
  843.50  0.0000E+000  
  844.00  3.2292E-005  
  844.50  0.0000E+000  
  845.00  9.4994E-006  
  845.50  0.0000E+000  
  846.00  0.0000E+000  
  846.50  0.0000E+000  
  847.00  0.0000E+000  
  847.50  0.0000E+000  
  848.00  2.1346E-005  
  848.50  5.9079E-005  
  849.00  1.4450E-006  
  849.50  0.0000E+000  
  850.00  0.0000E+000  
  850.50  0.0000E+000  
  851.00  0.0000E+000  
  851.50  0.0000E+000  
  852.00  0.0000E+000  
  852.50  0.0000E+000  
  853.00  0.0000E+000  
  853.50  0.0000E+000  
  854.00  0.0000E+000  
  854.50  1.0358E-005  
  855.00  2.0400E-004  
  855.50  4.8460E-004  
  856.00  6.3360E-004  
  856.50  4.1054E-004  
  857.00  1.4211E-004  
  857.50  4.7799E-005  
  858.00  0.0000E+000  
  858.50  0.0000E+000  
  859.00  0.0000E+000  
  859.50  0.0000E+000  
  860.00  0.0000E+000  
  860.50  0.0000E+000  
  861.00  0.0000E+000  
  861.50  0.0000E+000  
  862.00  0.0000E+000  
  862.50  0.0000E+000  
  863.00  0.0000E+000  
  863.50  0.0000E+000  
  864.00  0.0000E+000  
  864.50  0.0000E+000  
  865.00  0.0000E+000  
  865.50  0.0000E+000  
  866.00  0.0000E+000  
  866.50  0.0000E+000  
  867.00  7.4848E-005  
  867.50  2.9191E-004  
  868.00  3.1263E-004  
  868.50  7.6092E-005  
  869.00  0.0000E+000  
  869.50  5.4655E-005  
  870.00  0.0000E+000  
  870.50  0.0000E+000  
  871.00  0.0000E+000  
  871.50  1.2671E-004  
  872.00  4.5337E-004  
  872.50  5.4328E-006  
  873.00  0.0000E+000  
  873.50  4.6950E-005  
  874.00  1.1326E-004  
  874.50  0.0000E+000  
  875.00  0.0000E+000  
  875.50  1.2237E-005  
  876.00  0.0000E+000  
  876.50  0.0000E+000  
  877.00  3.6291E-005  
  877.50  2.9102E-004  
  878.00  2.4608E-005  
  878.50  0.0000E+000  
  879.00  0.0000E+000  
  879.50  0.0000E+000  
  880.00  0.0000E+000  
  880.50  0.0000E+000  
  881.00  5.3123E-005  
  881.50  6.1919E-005  
  882.00  3.4021E-004  
  882.50  2.1935E-004  
  883.00  1.5854E-005  
  883.50  0.0000E+000  
  884.00  0.0000E+000  
  884.50  0.0000E+000  
  885.00  0.0000E+000  
  885.50  0.0000E+000  
  886.00  0.0000E+000  
  886.50  0.0000E+000  
  887.00  0.0000E+000  
  887.50  0.0000E+000  
  888.00  0.0000E+000  
  888.50  0.0000E+000  
  889.00  4.0581E-004  
  889.50  2.9671E-004  
  890.00  1.1932E-005  
  890.50  0.0000E+000  
  891.00  0.0000E+000  
  891.50  0.0000E+000  
  892.00  0.0000E+000  
  892.50  2.5496E-004  
  893.00  0.0000E+000  
  893.50  0.0000E+000  
  894.00  0.0000E+000  
  894.50  6.4556E-004  
  895.00  6.0650E-004  
  895.50  5.3162E-005  
  896.00  0.0000E+000  
  896.50  0.0000E+000  
  897.00  0.0000E+000  
  897.50  0.0000E+000  
  898.00  0.0000E+000  
  898.50  0.0000E+000  
  899.00  0.0000E+000  
  899.50  0.0000E+000  
