
# From lspdd.org
# 
# Name: DEL Philips SLIME-Downlight -
# Indice spectral Valeur 
# MSI 0.31 
# SLI 0.53 
# IPI 0.67 
# Pourcentage de bleu 20.2 
# Caractéristique Valeur 
# CCT calculée (K) 2877 
# CCT du fabricant (K) 3000 
# Tension (V) 120 
# Puissance (W) 9.5 
# Efficacité lumineuse (Lum/W) 63.2 
#
# Image: '/app/system/img_2s/2722/medium_image2.jpg?1496333170'
# Image: '/app/system/img_1s/2722/medium_image1.jpg?1496333168'
# 

  273.00  0.0000E+000  
  273.50  0.0000E+000  
  274.00  0.0000E+000  
  274.50  0.0000E+000  
  275.00  0.0000E+000  
  275.50  0.0000E+000  
  276.00  0.0000E+000  
  276.50  0.0000E+000  
  277.00  0.0000E+000  
  277.50  0.0000E+000  
  278.00  0.0000E+000  
  278.50  0.0000E+000  
  279.00  0.0000E+000  
  279.50  0.0000E+000  
  280.00  0.0000E+000  
  280.50  0.0000E+000  
  281.00  0.0000E+000  
  281.50  0.0000E+000  
  282.00  0.0000E+000  
  282.50  0.0000E+000  
  283.00  0.0000E+000  
  283.50  0.0000E+000  
  284.00  0.0000E+000  
  284.50  0.0000E+000  
  285.00  0.0000E+000  
  285.50  0.0000E+000  
  286.00  0.0000E+000  
  286.50  0.0000E+000  
  287.00  0.0000E+000  
  287.50  0.0000E+000  
  288.00  0.0000E+000  
  288.50  0.0000E+000  
  289.00  0.0000E+000  
  289.50  0.0000E+000  
  290.00  0.0000E+000  
  290.50  0.0000E+000  
  291.00  0.0000E+000  
  291.50  0.0000E+000  
  292.00  0.0000E+000  
  292.50  0.0000E+000  
  293.00  0.0000E+000  
  293.50  0.0000E+000  
  294.00  0.0000E+000  
  294.50  0.0000E+000  
  295.00  0.0000E+000  
  295.50  0.0000E+000  
  296.00  0.0000E+000  
  296.50  0.0000E+000  
  297.00  0.0000E+000  
  297.50  0.0000E+000  
  298.00  0.0000E+000  
  298.50  0.0000E+000  
  299.00  0.0000E+000  
  299.50  0.0000E+000  
  300.00  1.1954E-004  
  300.50  4.7267E-004  
  301.00  5.6236E-004  
  301.50  4.1755E-004  
  302.00  3.7245E-004  
  302.50  3.6417E-004  
  303.00  2.0264E-004  
  303.50  1.1515E-004  
  304.00  1.8325E-005  
  304.50  0.0000E+000  
  305.00  0.0000E+000  
  305.50  0.0000E+000  
  306.00  0.0000E+000  
  306.50  0.0000E+000  
  307.00  0.0000E+000  
  307.50  0.0000E+000  
  308.00  3.3880E-004  
  308.50  5.9070E-004  
  309.00  5.8526E-004  
  309.50  4.0936E-004  
  310.00  3.5741E-004  
  310.50  5.7074E-004  
  311.00  4.5693E-004  
  311.50  2.7888E-004  
  312.00  3.1228E-004  
  312.50  2.6207E-004  
  313.00  6.0294E-004  
  313.50  6.5535E-004  
  314.00  3.2204E-004  
  314.50  1.4818E-004  
  315.00  0.0000E+000  
  315.50  0.0000E+000  
  316.00  0.0000E+000  
  316.50  0.0000E+000  
  317.00  3.4326E-004  
  317.50  3.5578E-004  
  318.00  1.9112E-004  
  318.50  4.4988E-005  
  319.00  0.0000E+000  
  319.50  0.0000E+000  
  320.00  0.0000E+000  
  320.50  0.0000E+000  
  321.00  0.0000E+000  
  321.50  0.0000E+000  
  322.00  1.0445E-004  
  322.50  3.5678E-004  
  323.00  7.2257E-004  
  323.50  9.2568E-004  
  324.00  5.8730E-004  
  324.50  2.8868E-004  
  325.00  2.9511E-005  
  325.50  0.0000E+000  
  326.00  0.0000E+000  
  326.50  0.0000E+000  
  327.00  0.0000E+000  
  327.50  0.0000E+000  
  328.00  0.0000E+000  
  328.50  0.0000E+000  
  329.00  0.0000E+000  
  329.50  0.0000E+000  
  330.00  1.9351E-005  
  330.50  1.0189E-004  
  331.00  4.9979E-005  
  331.50  0.0000E+000  
  332.00  0.0000E+000  
  332.50  0.0000E+000  
  333.00  2.7043E-006  
  333.50  8.3697E-005  
  334.00  4.9223E-005  
  334.50  0.0000E+000  
  335.00  0.0000E+000  
  335.50  0.0000E+000  
  336.00  0.0000E+000  
  336.50  0.0000E+000  
  337.00  0.0000E+000  
  337.50  3.2412E-005  
  338.00  0.0000E+000  
  338.50  0.0000E+000  
  339.00  0.0000E+000  
  339.50  7.3383E-005  
  340.00  3.5638E-004  
  340.50  6.2556E-004  
  341.00  9.3706E-004  
  341.50  8.7391E-004  
  342.00  4.6414E-004  
  342.50  5.2935E-005  
  343.00  0.0000E+000  
  343.50  0.0000E+000  
  344.00  0.0000E+000  
  344.50  0.0000E+000  
  345.00  0.0000E+000  
  345.50  0.0000E+000  
  346.00  0.0000E+000  
  346.50  0.0000E+000  
  347.00  0.0000E+000  
  347.50  0.0000E+000  
  348.00  0.0000E+000  
  348.50  0.0000E+000  
  349.00  0.0000E+000  
  349.50  0.0000E+000  
  350.00  0.0000E+000  
  350.50  0.0000E+000  
  351.00  0.0000E+000  
  351.50  0.0000E+000  
  352.00  0.0000E+000  
  352.50  1.0873E-004  
  353.00  4.4788E-004  
  353.50  4.1954E-004  
  354.00  1.8914E-004  
  354.50  0.0000E+000  
  355.00  0.0000E+000  
  355.50  0.0000E+000  
  356.00  0.0000E+000  
  356.50  5.3573E-005  
  357.00  4.4689E-004  
  357.50  6.2160E-004  
  358.00  6.8491E-004  
  358.50  2.9662E-004  
  359.00  0.0000E+000  
  359.50  0.0000E+000  
  360.00  0.0000E+000  
  360.50  0.0000E+000  
  361.00  0.0000E+000  
  361.50  0.0000E+000  
  362.00  0.0000E+000  
  362.50  0.0000E+000  
  363.00  5.2728E-006  
  363.50  8.3711E-006  
  364.00  0.0000E+000  
  364.50  9.0118E-005  
  365.00  2.7122E-004  
  365.50  4.8115E-004  
  366.00  2.3034E-004  
  366.50  4.3238E-005  
  367.00  0.0000E+000  
  367.50  0.0000E+000  
  368.00  0.0000E+000  
  368.50  0.0000E+000  
  369.00  0.0000E+000  
  369.50  0.0000E+000  
  370.00  0.0000E+000  
  370.50  0.0000E+000  
  371.00  0.0000E+000  
  371.50  0.0000E+000  
  372.00  0.0000E+000  
  372.50  0.0000E+000  
  373.00  1.1590E-005  
  373.50  3.3260E-005  
  374.00  8.8326E-005  
  374.50  0.0000E+000  
  375.00  0.0000E+000  
  375.50  0.0000E+000  
  376.00  8.6703E-005  
  376.50  4.4014E-004  
  377.00  3.4932E-004  
  377.50  2.5656E-004  
  378.00  1.8305E-005  
  378.50  1.6121E-004  
  379.00  6.8358E-004  
  379.50  1.0969E-003  
  380.00  9.7949E-004  
  380.50  6.8550E-004  
  381.00  4.0810E-004  
  381.50  6.1720E-005  
  382.00  0.0000E+000  
  382.50  0.0000E+000  
  383.00  0.0000E+000  
  383.50  5.7501E-005  
  384.00  4.6930E-005  
  384.50  1.5593E-004  
  385.00  2.3176E-004  
  385.50  1.1953E-004  
  386.00  1.4726E-005  
  386.50  2.0938E-005  
  387.00  2.7218E-004  
  387.50  4.7695E-004  
  388.00  4.1047E-004  
  388.50  1.6848E-004  
  389.00  3.7801E-006  
  389.50  0.0000E+000  
  390.00  8.2024E-005  
  390.50  4.3775E-004  
  391.00  7.6881E-004  
  391.50  8.3483E-004  
  392.00  6.7275E-004  
  392.50  4.7624E-004  
  393.00  5.4505E-004  
  393.50  3.5105E-004  
  394.00  3.0392E-004  
  394.50  3.9676E-004  
  395.00  4.3328E-004  
  395.50  5.3132E-004  
  396.00  2.8903E-004  
  396.50  5.4826E-005  
  397.00  0.0000E+000  
  397.50  8.3846E-005  
  398.00  3.5138E-004  
  398.50  3.2349E-004  
  399.00  3.4032E-004  
  399.50  3.7561E-004  
  400.00  3.7750E-004  
  400.50  4.3737E-004  
  401.00  4.6209E-004  
  401.50  8.1806E-005  
  402.00  0.0000E+000  
  402.50  0.0000E+000  
  403.00  0.0000E+000  
  403.50  1.6326E-004  
  404.00  2.7725E-004  
  404.50  1.4647E-004  
  405.00  5.9212E-005  
  405.50  0.0000E+000  
  406.00  0.0000E+000  
  406.50  0.0000E+000  
  407.00  0.0000E+000  
  407.50  1.5937E-005  
  408.00  1.6791E-004  
  408.50  6.6895E-005  
  409.00  6.6377E-005  
  409.50  4.5968E-005  
  410.00  0.0000E+000  
  410.50  1.5971E-004  
  411.00  4.4576E-004  
  411.50  3.1750E-004  
  412.00  1.6117E-004  
  412.50  9.2799E-005  
  413.00  5.8474E-004  
  413.50  1.3533E-003  
  414.00  1.7247E-003  
  414.50  1.5986E-003  
  415.00  1.0023E-003  
  415.50  6.0055E-004  
  416.00  3.9780E-004  
  416.50  4.0326E-004  
  417.00  6.1680E-004  
  417.50  7.4871E-004  
  418.00  8.5513E-004  
  418.50  9.6879E-004  
  419.00  1.2122E-003  
  419.50  1.3633E-003  
  420.00  1.6041E-003  
  420.50  1.5211E-003  
  421.00  1.4476E-003  
  421.50  1.4064E-003  
  422.00  1.3911E-003  
  422.50  1.5088E-003  
  423.00  1.7163E-003  
  423.50  1.6334E-003  
  424.00  1.7731E-003  
  424.50  1.7926E-003  
  425.00  1.8033E-003  
  425.50  2.0190E-003  
  426.00  1.9759E-003  
  426.50  2.0778E-003  
  427.00  2.2272E-003  
  427.50  2.2998E-003  
  428.00  2.5468E-003  
  428.50  2.8140E-003  
  429.00  3.1790E-003  
  429.50  3.2690E-003  
  430.00  3.2858E-003  
  430.50  3.1897E-003  
  431.00  3.2420E-003  
  431.50  3.3082E-003  
  432.00  3.2667E-003  
  432.50  3.3758E-003  
  433.00  3.6570E-003  
  433.50  4.1413E-003  
  434.00  4.5053E-003  
  434.50  4.9101E-003  
  435.00  5.1483E-003  
  435.50  5.4409E-003  
  436.00  5.5803E-003  
  436.50  5.7527E-003  
  437.00  6.2716E-003  
  437.50  6.8679E-003  
  438.00  7.1858E-003  
  438.50  7.5696E-003  
  439.00  7.7860E-003  
  439.50  8.1108E-003  
  440.00  8.4019E-003  
  440.50  8.6590E-003  
  441.00  9.0479E-003  
  441.50  9.5246E-003  
  442.00  1.0398E-002  
  442.50  1.1182E-002  
  443.00  1.1938E-002  
  443.50  1.2504E-002  
  444.00  1.2971E-002  
  444.50  1.3490E-002  
  445.00  1.4017E-002  
  445.50  1.4725E-002  
  446.00  1.5516E-002  
  446.50  1.6414E-002  
  447.00  1.7549E-002  
  447.50  1.8577E-002  
  448.00  1.9666E-002  
  448.50  2.0549E-002  
  449.00  2.1652E-002  
  449.50  2.2737E-002  
  450.00  2.3908E-002  
  450.50  2.5268E-002  
  451.00  2.6267E-002  
  451.50  2.7502E-002  
  452.00  2.8678E-002  
  452.50  2.9745E-002  
  453.00  3.1262E-002  
  453.50  3.2528E-002  
  454.00  3.3885E-002  
  454.50  3.4983E-002  
  455.00  3.5870E-002  
  455.50  3.6669E-002  
  456.00  3.7251E-002  
  456.50  3.7793E-002  
  457.00  3.8307E-002  
  457.50  3.8886E-002  
  458.00  3.9325E-002  
  458.50  3.9373E-002  
  459.00  3.9441E-002  
  459.50  3.9325E-002  
  460.00  3.8859E-002  
  460.50  3.8409E-002  
  461.00  3.7774E-002  
  461.50  3.7389E-002  
  462.00  3.7108E-002  
  462.50  3.6516E-002  
  463.00  3.5959E-002  
  463.50  3.5164E-002  
  464.00  3.4577E-002  
  464.50  3.3983E-002  
  465.00  3.3374E-002  
  465.50  3.2844E-002  
  466.00  3.2281E-002  
  466.50  3.1828E-002  
  467.00  3.1321E-002  
  467.50  3.0902E-002  
  468.00  3.0488E-002  
  468.50  3.0360E-002  
  469.00  3.0442E-002  
  469.50  3.0548E-002  
  470.00  3.0372E-002  
  470.50  2.9954E-002  
  471.00  2.9509E-002  
  471.50  2.9085E-002  
  472.00  2.8890E-002  
  472.50  2.8816E-002  
  473.00  2.8687E-002  
  473.50  2.8705E-002  
  474.00  2.8569E-002  
  474.50  2.8022E-002  
  475.00  2.7493E-002  
  475.50  2.6583E-002  
  476.00  2.6021E-002  
  476.50  2.5654E-002  
  477.00  2.5332E-002  
  477.50  2.4904E-002  
  478.00  2.4374E-002  
  478.50  2.4004E-002  
  479.00  2.3718E-002  
  479.50  2.3415E-002  
  480.00  2.3271E-002  
  480.50  2.2994E-002  
  481.00  2.2945E-002  
  481.50  2.2841E-002  
  482.00  2.2542E-002  
  482.50  2.2334E-002  
  483.00  2.1832E-002  
  483.50  2.1499E-002  
  484.00  2.1258E-002  
  484.50  2.1162E-002  
  485.00  2.1239E-002  
  485.50  2.1266E-002  
  486.00  2.1362E-002  
  486.50  2.1371E-002  
  487.00  2.1269E-002  
  487.50  2.1062E-002  
  488.00  2.0841E-002  
  488.50  2.0901E-002  
  489.00  2.1180E-002  
  489.50  2.1331E-002  
  490.00  2.1273E-002  
  490.50  2.1037E-002  
  491.00  2.0907E-002  
  491.50  2.0970E-002  
  492.00  2.1085E-002  
  492.50  2.1190E-002  
  493.00  2.1200E-002  
  493.50  2.1154E-002  
  494.00  2.1279E-002  
  494.50  2.1544E-002  
  495.00  2.1732E-002  
  495.50  2.1772E-002  
  496.00  2.1670E-002  
  496.50  2.1720E-002  
  497.00  2.1800E-002  
  497.50  2.2033E-002  
  498.00  2.2085E-002  
  498.50  2.2218E-002  
  499.00  2.2465E-002  
  499.50  2.2827E-002  
  500.00  2.3139E-002  
  500.50  2.3423E-002  
  501.00  2.3429E-002  
  501.50  2.3548E-002  
  502.00  2.3626E-002  
  502.50  2.3661E-002  
  503.00  2.3942E-002  
  503.50  2.4213E-002  
  504.00  2.4573E-002  
  504.50  2.4869E-002  
  505.00  2.5039E-002  
  505.50  2.5244E-002  
  506.00  2.5271E-002  
  506.50  2.5355E-002  
  507.00  2.5462E-002  
  507.50  2.5640E-002  
  508.00  2.5873E-002  
  508.50  2.6227E-002  
  509.00  2.6590E-002  
  509.50  2.7005E-002  
  510.00  2.7248E-002  
  510.50  2.7375E-002  
  511.00  2.7521E-002  
  511.50  2.7734E-002  
  512.00  2.7987E-002  
  512.50  2.8290E-002  
  513.00  2.8523E-002  
  513.50  2.8767E-002  
  514.00  2.8850E-002  
  514.50  2.8986E-002  
  515.00  2.9143E-002  
  515.50  2.9446E-002  
  516.00  2.9857E-002  
  516.50  3.0332E-002  
  517.00  3.0656E-002  
  517.50  3.0874E-002  
  518.00  3.1062E-002  
  518.50  3.1199E-002  
  519.00  3.1477E-002  
  519.50  3.1682E-002  
  520.00  3.1931E-002  
  520.50  3.2254E-002  
  521.00  3.2470E-002  
  521.50  3.2754E-002  
  522.00  3.2966E-002  
  522.50  3.3083E-002  
  523.00  3.3161E-002  
  523.50  3.3250E-002  
  524.00  3.3586E-002  
  524.50  3.4005E-002  
  525.00  3.4456E-002  
  525.50  3.4863E-002  
  526.00  3.5102E-002  
  526.50  3.5360E-002  
  527.00  3.5528E-002  
  527.50  3.5829E-002  
  528.00  3.6033E-002  
  528.50  3.6270E-002  
  529.00  3.6589E-002  
  529.50  3.7025E-002  
  530.00  3.7515E-002  
  530.50  3.7814E-002  
  531.00  3.7905E-002  
  531.50  3.8060E-002  
  532.00  3.8151E-002  
  532.50  3.8487E-002  
  533.00  3.8894E-002  
  533.50  3.9350E-002  
  534.00  3.9735E-002  
  534.50  3.9978E-002  
  535.00  4.0315E-002  
  535.50  4.0823E-002  
  536.00  4.1300E-002  
  536.50  4.1734E-002  
  537.00  4.1985E-002  
  537.50  4.2130E-002  
  538.00  4.2236E-002  
  538.50  4.2458E-002  
  539.00  4.2880E-002  
  539.50  4.3356E-002  
  540.00  4.3822E-002  
  540.50  4.4165E-002  
  541.00  4.4569E-002  
  541.50  4.4978E-002  
  542.00  4.5256E-002  
  542.50  4.5533E-002  
  543.00  4.5847E-002  
  543.50  4.6236E-002  
  544.00  4.6572E-002  
  544.50  4.6915E-002  
  545.00  4.7267E-002  
  545.50  4.7676E-002  
  546.00  4.8056E-002  
  546.50  4.8395E-002  
  547.00  4.8707E-002  
  547.50  4.9059E-002  
  548.00  4.9660E-002  
  548.50  5.0134E-002  
  549.00  5.0397E-002  
  549.50  5.0617E-002  
  550.00  5.0773E-002  
  550.50  5.1213E-002  
  551.00  5.1641E-002  
  551.50  5.1970E-002  
  552.00  5.2451E-002  
  552.50  5.2873E-002  
  553.00  5.3238E-002  
  553.50  5.3523E-002  
  554.00  5.3825E-002  
  554.50  5.4318E-002  
  555.00  5.4847E-002  
  555.50  5.5504E-002  
  556.00  5.6223E-002  
  556.50  5.6678E-002  
  557.00  5.6919E-002  
  557.50  5.7043E-002  
  558.00  5.7291E-002  
  558.50  5.8013E-002  
  559.00  5.8751E-002  
  559.50  5.9166E-002  
  560.00  5.9576E-002  
  560.50  5.9751E-002  
  561.00  6.0480E-002  
  561.50  6.0882E-002  
  562.00  6.1107E-002  
  562.50  6.1389E-002  
  563.00  6.1695E-002  
  563.50  6.2208E-002  
  564.00  6.2635E-002  
  564.50  6.3155E-002  
  565.00  6.3602E-002  
  565.50  6.4072E-002  
  566.00  6.4456E-002  
  566.50  6.4913E-002  
  567.00  6.5487E-002  
  567.50  6.6030E-002  
  568.00  6.6403E-002  
  568.50  6.6616E-002  
  569.00  6.6778E-002  
  569.50  6.7187E-002  
  570.00  6.7482E-002  
  570.50  6.7908E-002  
  571.00  6.8399E-002  
  571.50  6.8994E-002  
  572.00  6.9550E-002  
  572.50  7.0041E-002  
  573.00  7.0658E-002  
  573.50  7.1122E-002  
  574.00  7.1325E-002  
  574.50  7.1390E-002  
  575.00  7.1495E-002  
  575.50  7.1879E-002  
  576.00  7.2620E-002  
  576.50  7.3376E-002  
  577.00  7.3953E-002  
  577.50  7.4275E-002  
  578.00  7.4538E-002  
  578.50  7.4828E-002  
  579.00  7.5065E-002  
  579.50  7.5266E-002  
  580.00  7.5537E-002  
  580.50  7.5807E-002  
  581.00  7.6224E-002  
  581.50  7.6495E-002  
  582.00  7.6714E-002  
  582.50  7.6759E-002  
  583.00  7.6925E-002  
  583.50  7.7397E-002  
  584.00  7.8052E-002  
  584.50  7.8766E-002  
  585.00  7.9244E-002  
  585.50  7.9556E-002  
  586.00  7.9743E-002  
  586.50  7.9892E-002  
  587.00  8.0146E-002  
  587.50  8.0236E-002  
  588.00  8.0287E-002  
  588.50  8.0397E-002  
  589.00  8.0617E-002  
  589.50  8.0786E-002  
  590.00  8.0934E-002  
  590.50  8.1070E-002  
  591.00  8.1350E-002  
  591.50  8.1750E-002  
  592.00  8.1902E-002  
  592.50  8.2234E-002  
  593.00  8.2242E-002  
  593.50  8.2591E-002  
  594.00  8.2611E-002  
  594.50  8.2584E-002  
  595.00  8.2338E-002  
  595.50  8.2637E-002  
  596.00  8.3376E-002  
  596.50  8.4102E-002  
  597.00  8.4398E-002  
  597.50  8.4242E-002  
  598.00  8.4110E-002  
  598.50  8.4201E-002  
  599.00  8.4287E-002  
  599.50  8.4141E-002  
  600.00  8.3740E-002  
  600.50  8.3432E-002  
  601.00  8.3407E-002  
  601.50  8.3598E-002  
  602.00  8.3565E-002  
  602.50  8.3462E-002  
  603.00  8.3228E-002  
  603.50  8.3444E-002  
  604.00  8.3798E-002  
  604.50  8.3942E-002  
  605.00  8.3657E-002  
  605.50  8.3108E-002  
  606.00  8.2832E-002  
  606.50  8.3032E-002  
  607.00  8.2971E-002  
  607.50  8.2743E-002  
  608.00  8.2193E-002  
  608.50  8.2101E-002  
  609.00  8.2272E-002  
  609.50  8.2390E-002  
  610.00  8.2222E-002  
  610.50  8.2194E-002  
  611.00  8.2207E-002  
  611.50  8.2140E-002  
  612.00  8.1748E-002  
  612.50  8.1321E-002  
  613.00  8.1349E-002  
  613.50  8.1192E-002  
  614.00  8.0954E-002  
  614.50  8.0372E-002  
  615.00  7.9898E-002  
  615.50  7.9741E-002  
  616.00  7.9617E-002  
  616.50  7.9472E-002  
  617.00  7.8914E-002  
  617.50  7.8517E-002  
  618.00  7.8382E-002  
  618.50  7.8515E-002  
  619.00  7.8049E-002  
  619.50  7.7565E-002  
  620.00  7.7026E-002  
  620.50  7.6800E-002  
  621.00  7.6432E-002  
  621.50  7.5984E-002  
  622.00  7.5688E-002  
  622.50  7.5582E-002  
  623.00  7.5251E-002  
  623.50  7.5039E-002  
  624.00  7.4439E-002  
  624.50  7.4132E-002  
  625.00  7.3687E-002  
  625.50  7.3536E-002  
  626.00  7.3171E-002  
  626.50  7.2771E-002  
  627.00  7.2283E-002  
  627.50  7.2326E-002  
  628.00  7.2306E-002  
  628.50  7.2130E-002  
  629.00  7.1458E-002  
  629.50  7.0870E-002  
  630.00  7.0593E-002  
  630.50  7.0083E-002  
  631.00  6.9239E-002  
  631.50  6.8526E-002  
  632.00  6.8079E-002  
  632.50  6.7895E-002  
  633.00  6.7448E-002  
  633.50  6.7063E-002  
  634.00  6.6808E-002  
  634.50  6.6543E-002  
  635.00  6.6149E-002  
  635.50  6.5382E-002  
  636.00  6.4506E-002  
  636.50  6.3651E-002  
  637.00  6.3335E-002  
  637.50  6.3449E-002  
  638.00  6.3321E-002  
  638.50  6.2467E-002  
  639.00  6.1514E-002  
  639.50  6.1018E-002  
  640.00  6.0904E-002  
  640.50  6.0696E-002  
  641.00  6.0596E-002  
  641.50  6.0486E-002  
  642.00  5.9960E-002  
  642.50  5.9089E-002  
  643.00  5.8030E-002  
  643.50  5.7503E-002  
  644.00  5.6946E-002  
  644.50  5.6511E-002  
  645.00  5.6213E-002  
  645.50  5.6079E-002  
  646.00  5.5688E-002  
  646.50  5.4913E-002  
  647.00  5.4245E-002  
  647.50  5.3804E-002  
  648.00  5.3756E-002  
  648.50  5.3440E-002  
  649.00  5.2891E-002  
  649.50  5.1910E-002  
  650.00  5.1091E-002  
  650.50  5.0434E-002  
  651.00  4.9965E-002  
  651.50  4.9571E-002  
  652.00  4.9024E-002  
  652.50  4.8738E-002  
  653.00  4.8135E-002  
  653.50  4.7968E-002  
  654.00  4.7516E-002  
  654.50  4.7291E-002  
  655.00  4.6710E-002  
  655.50  4.6195E-002  
  656.00  4.5816E-002  
  656.50  4.5355E-002  
  657.00  4.5092E-002  
  657.50  4.4480E-002  
  658.00  4.3973E-002  
  658.50  4.3217E-002  
  659.00  4.2485E-002  
  659.50  4.2098E-002  
  660.00  4.1692E-002  
  660.50  4.1380E-002  
  661.00  4.0993E-002  
  661.50  4.0603E-002  
  662.00  3.9949E-002  
  662.50  3.9003E-002  
  663.00  3.8364E-002  
  663.50  3.8391E-002  
  664.00  3.8584E-002  
  664.50  3.8365E-002  
  665.00  3.7715E-002  
  665.50  3.7019E-002  
  666.00  3.6627E-002  
  666.50  3.6357E-002  
  667.00  3.6039E-002  
  667.50  3.5508E-002  
  668.00  3.4821E-002  
  668.50  3.4505E-002  
  669.00  3.4351E-002  
  669.50  3.4301E-002  
  670.00  3.3879E-002  
  670.50  3.3097E-002  
  671.00  3.2174E-002  
  671.50  3.1489E-002  
  672.00  3.1059E-002  
  672.50  3.0869E-002  
  673.00  3.0560E-002  
  673.50  3.0092E-002  
  674.00  2.9554E-002  
  674.50  2.9236E-002  
  675.00  2.9393E-002  
  675.50  2.9434E-002  
  676.00  2.9407E-002  
  676.50  2.9094E-002  
  677.00  2.8654E-002  
  677.50  2.8306E-002  
  678.00  2.7823E-002  
  678.50  2.7524E-002  
  679.00  2.7066E-002  
  679.50  2.6648E-002  
  680.00  2.6092E-002  
  680.50  2.5337E-002  
  681.00  2.4722E-002  
  681.50  2.4278E-002  
  682.00  2.4315E-002  
  682.50  2.4327E-002  
  683.00  2.3909E-002  
  683.50  2.3587E-002  
  684.00  2.3562E-002  
  684.50  2.3636E-002  
  685.00  2.3661E-002  
  685.50  2.3432E-002  
  686.00  2.3321E-002  
  686.50  2.2647E-002  
  687.00  2.2267E-002  
  687.50  2.2161E-002  
  688.00  2.2235E-002  
  688.50  2.1974E-002  
  689.00  2.1569E-002  
  689.50  2.1259E-002  
  690.00  2.1149E-002  
  690.50  2.1050E-002  
  691.00  2.0490E-002  
  691.50  2.0132E-002  
  692.00  1.9775E-002  
  692.50  1.9794E-002  
  693.00  1.9295E-002  
  693.50  1.9061E-002  
  694.00  1.9011E-002  
  694.50  1.9035E-002  
  695.00  1.8533E-002  
  695.50  1.7804E-002  
  696.00  1.7200E-002  
  696.50  1.7035E-002  
  697.00  1.6937E-002  
  697.50  1.7013E-002  
  698.00  1.6716E-002  
  698.50  1.6268E-002  
  699.00  1.5871E-002  
  699.50  1.6057E-002  
  700.00  1.6156E-002  
  700.50  1.5874E-002  
  701.00  1.5552E-002  
  701.50  1.5673E-002  
  702.00  1.6118E-002  
  702.50  1.6245E-002  
  703.00  1.6032E-002  
  703.50  1.5354E-002  
  704.00  1.4550E-002  
  704.50  1.4052E-002  
  705.00  1.3768E-002  
  705.50  1.3505E-002  
  706.00  1.3398E-002  
  706.50  1.3197E-002  
  707.00  1.3036E-002  
  707.50  1.2672E-002  
  708.00  1.2365E-002  
  708.50  1.2463E-002  
  709.00  1.2295E-002  
  709.50  1.2083E-002  
  710.00  1.1664E-002  
  710.50  1.1440E-002  
  711.00  1.1185E-002  
  711.50  1.1002E-002  
  712.00  1.1174E-002  
  712.50  1.1594E-002  
  713.00  1.1450E-002  
  713.50  1.1109E-002  
  714.00  1.0813E-002  
  714.50  1.0723E-002  
  715.00  1.0273E-002  
  715.50  9.8624E-003  
  716.00  9.7066E-003  
  716.50  1.0009E-002  
  717.00  9.7342E-003  
  717.50  9.2895E-003  
  718.00  9.0356E-003  
  718.50  9.0839E-003  
  719.00  8.8947E-003  
  719.50  8.4006E-003  
  720.00  8.3472E-003  
  720.50  8.8551E-003  
  721.00  9.8680E-003  
  721.50  1.0002E-002  
  722.00  9.2860E-003  
  722.50  8.1314E-003  
  723.00  7.6956E-003  
  723.50  7.9117E-003  
  724.00  8.4086E-003  
  724.50  8.1516E-003  
  725.00  8.0234E-003  
  725.50  8.3073E-003  
  726.00  8.1410E-003  
  726.50  7.5936E-003  
  727.00  7.1535E-003  
  727.50  7.4247E-003  
  728.00  7.2195E-003  
  728.50  7.0110E-003  
  729.00  6.7709E-003  
  729.50  6.5975E-003  
  730.00  5.9439E-003  
  730.50  5.8861E-003  
  731.00  6.0680E-003  
  731.50  6.2081E-003  
  732.00  5.7910E-003  
  732.50  5.6295E-003  
  733.00  5.6661E-003  
  733.50  5.1880E-003  
  734.00  4.9279E-003  
  734.50  5.2581E-003  
  735.00  6.0134E-003  
  735.50  6.6022E-003  
  736.00  6.5166E-003  
  736.50  6.1795E-003  
  737.00  5.5555E-003  
  737.50  4.9180E-003  
  738.00  3.9724E-003  
  738.50  3.3185E-003  
  739.00  3.9166E-003  
  739.50  4.8663E-003  
  740.00  5.2732E-003  
  740.50  4.4987E-003  
  741.00  4.2856E-003  
  741.50  4.4684E-003  
  742.00  4.9920E-003  
  742.50  5.2031E-003  
  743.00  4.7164E-003  
  743.50  4.7249E-003  
  744.00  4.7605E-003  
  744.50  4.5428E-003  
  745.00  3.8485E-003  
  745.50  3.5231E-003  
  746.00  3.7618E-003  
  746.50  3.9797E-003  
  747.00  3.8981E-003  
  747.50  3.9391E-003  
  748.00  4.5530E-003  
  748.50  4.5625E-003  
  749.00  4.3181E-003  
  749.50  3.6431E-003  
  750.00  3.2435E-003  
  750.50  3.1725E-003  
  751.00  3.6416E-003  
  751.50  3.7382E-003  
  752.00  3.1721E-003  
  752.50  3.1629E-003  
  753.00  3.3014E-003  
  753.50  3.4128E-003  
  754.00  2.4490E-003  
  754.50  2.3126E-003  
  755.00  3.0901E-003  
  755.50  3.7867E-003  
  756.00  3.9415E-003  
  756.50  3.7712E-003  
  757.00  3.3513E-003  
  757.50  3.1988E-003  
  758.00  2.4556E-003  
  758.50  2.5186E-003  
  759.00  2.4821E-003  
  759.50  2.8556E-003  
  760.00  2.4923E-003  
  760.50  2.3751E-003  
  761.00  1.8574E-003  
  761.50  1.0992E-003  
  762.00  1.0230E-003  
  762.50  1.3156E-003  
  763.00  1.7763E-003  
  763.50  2.2179E-003  
  764.00  2.2311E-003  
  764.50  2.1660E-003  
  765.00  2.2666E-003  
  765.50  3.0035E-003  
  766.00  2.8703E-003  
  766.50  2.1294E-003  
  767.00  1.1476E-003  
  767.50  1.0360E-003  
  768.00  1.4831E-003  
  768.50  2.1572E-003  
  769.00  2.1100E-003  
  769.50  2.1908E-003  
  770.00  3.1859E-003  
  770.50  3.0001E-003  
  771.00  2.1454E-003  
  771.50  1.8974E-003  
  772.00  3.0904E-003  
  772.50  3.4320E-003  
  773.00  2.1526E-003  
  773.50  1.2033E-003  
  774.00  4.3224E-004  
  774.50  4.0239E-004  
  775.00  6.3723E-004  
  775.50  6.6257E-004  
  776.00  3.0490E-004  
  776.50  8.9014E-004  
  777.00  1.8240E-003  
  777.50  1.7429E-003  
  778.00  1.7167E-003  
  778.50  2.6799E-003  
  779.00  3.2039E-003  
  779.50  2.7619E-003  
  780.00  1.2073E-003  
  780.50  8.7894E-004  
  781.00  8.4822E-004  
  781.50  1.0899E-003  
  782.00  1.6685E-003  
  782.50  2.6204E-003  
  783.00  2.6953E-003  
  783.50  2.4100E-003  
  784.00  1.8357E-003  
  784.50  5.1919E-004  
  785.00  0.0000E+000  
  785.50  0.0000E+000  
  786.00  1.9864E-005  
  786.50  2.7525E-005  
  787.00  4.3945E-005  
  787.50  1.3204E-003  
  788.00  2.2142E-003  
  788.50  1.9713E-003  
  789.00  1.5539E-003  
  789.50  4.9956E-004  
  790.00  0.0000E+000  
  790.50  0.0000E+000  
  791.00  0.0000E+000  
  791.50  0.0000E+000  
  792.00  0.0000E+000  
  792.50  0.0000E+000  
  793.00  0.0000E+000  
  793.50  0.0000E+000  
  794.00  7.2525E-004  
  794.50  2.2054E-003  
  795.00  1.8583E-003  
  795.50  4.4048E-004  
  796.00  0.0000E+000  
  796.50  0.0000E+000  
  797.00  8.4633E-005  
  797.50  7.0620E-004  
  798.00  2.1053E-003  
  798.50  2.5801E-003  
  799.00  2.5011E-003  
  799.50  2.4163E-003  
  800.00  1.8227E-003  
  800.50  7.5338E-004  
  801.00  0.0000E+000  
  801.50  0.0000E+000  
  802.00  0.0000E+000  
  802.50  8.4339E-005  
  803.00  5.0949E-004  
  803.50  7.0736E-006  
  804.00  0.0000E+000  
  804.50  3.9896E-004  
  805.00  1.9371E-003  
  805.50  2.8894E-003  
  806.00  1.8418E-003  
  806.50  1.2077E-004  
  807.00  8.2793E-004  
  807.50  1.0113E-003  
  808.00  1.8183E-004  
  808.50  0.0000E+000  
  809.00  5.0251E-004  
  809.50  2.2944E-003  
  810.00  3.0704E-003  
  810.50  1.8258E-003  
  811.00  3.5602E-004  
  811.50  0.0000E+000  
  812.00  5.8419E-005  
  812.50  8.0632E-004  
  813.00  9.9762E-004  
  813.50  1.3586E-003  
  814.00  1.7229E-003  
  814.50  2.3383E-003  
  815.00  3.3035E-003  
  815.50  4.4587E-003  
  816.00  3.4448E-003  
  816.50  1.8317E-003  
  817.00  6.3940E-004  
  817.50  8.2357E-004  
  818.00  1.1121E-003  
  818.50  3.8716E-004  
  819.00  6.0613E-004  
  819.50  1.3195E-003  
  820.00  1.8486E-003  
  820.50  2.9532E-004  
  821.00  0.0000E+000  
  821.50  0.0000E+000  
  822.00  2.6988E-003  
  822.50  2.8824E-003  
  823.00  1.8884E-003  
  823.50  2.2450E-003  
  824.00  3.4960E-003  
  824.50  2.7070E-003  
  825.00  9.5705E-004  
  825.50  1.4785E-004  
  826.00  1.3352E-003  
  826.50  2.5180E-003  
  827.00  1.1350E-003  
  827.50  0.0000E+000  
  828.00  0.0000E+000  
  828.50  0.0000E+000  
  829.00  0.0000E+000  
  829.50  0.0000E+000  
  830.00  1.0197E-003  
  830.50  1.2895E-003  
  831.00  8.9445E-004  
  831.50  1.2338E-003  
  832.00  5.6031E-004  
  832.50  5.2301E-004  
  833.00  1.5845E-004  
  833.50  0.0000E+000  
  834.00  0.0000E+000  
  834.50  0.0000E+000  
  835.00  0.0000E+000  
  835.50  0.0000E+000  
  836.00  0.0000E+000  
  836.50  0.0000E+000  
  837.00  0.0000E+000  
  837.50  5.3963E-005  
  838.00  0.0000E+000  
  838.50  0.0000E+000  
  839.00  1.6489E-005  
  839.50  1.3204E-003  
  840.00  8.2997E-005  
  840.50  0.0000E+000  
  841.00  0.0000E+000  
  841.50  0.0000E+000  
  842.00  5.8175E-004  
  842.50  9.7041E-004  
  843.00  0.0000E+000  
  843.50  0.0000E+000  
  844.00  0.0000E+000  
  844.50  0.0000E+000  
  845.00  2.3398E-004  
  845.50  0.0000E+000  
  846.00  0.0000E+000  
  846.50  0.0000E+000  
  847.00  3.0685E-004  
  847.50  1.1152E-003  
  848.00  3.1605E-003  
  848.50  4.3276E-003  
  849.00  2.9814E-003  
  849.50  1.6050E-003  
  850.00  2.1464E-003  
  850.50  3.0504E-003  
  851.00  2.5030E-003  
  851.50  0.0000E+000  
  852.00  0.0000E+000  
  852.50  6.0074E-004  
  853.00  1.6062E-004  
  853.50  0.0000E+000  
  854.00  0.0000E+000  
  854.50  0.0000E+000  
  855.00  1.7004E-003  
  855.50  3.7484E-003  
  856.00  1.9917E-003  
  856.50  2.8494E-003  
  857.00  7.2450E-003  
  857.50  7.0348E-003  
  858.00  3.4850E-003  
  858.50  2.0283E-003  
  859.00  1.1095E-003  
  859.50  0.0000E+000  
  860.00  0.0000E+000  
  860.50  0.0000E+000  
  861.00  0.0000E+000  
  861.50  1.3302E-003  
  862.00  3.5160E-003  
  862.50  2.5514E-003  
  863.00  1.0318E-003  
  863.50  8.4070E-004  
  864.00  0.0000E+000  
  864.50  0.0000E+000  
  865.00  5.6260E-004  
  865.50  2.1606E-003  
  866.00  1.0954E-003  
  866.50  4.5901E-005  
  867.00  5.7309E-004  
  867.50  1.2560E-003  
  868.00  1.0133E-003  
  868.50  0.0000E+000  
  869.00  0.0000E+000  
  869.50  0.0000E+000  
  870.00  0.0000E+000  
  870.50  0.0000E+000  
  871.00  0.0000E+000  
  871.50  0.0000E+000  
  872.00  0.0000E+000  
  872.50  0.0000E+000  
  873.00  0.0000E+000  
  873.50  0.0000E+000  
  874.00  0.0000E+000  
  874.50  0.0000E+000  
  875.00  9.5464E-005  
  875.50  0.0000E+000  
  876.00  0.0000E+000  
  876.50  0.0000E+000  
  877.00  0.0000E+000  
  877.50  0.0000E+000  
  878.00  0.0000E+000  
  878.50  1.1852E-004  
  879.00  4.1181E-006  
  879.50  0.0000E+000  
  880.00  1.1927E-003  
  880.50  6.0903E-003  
  881.00  4.2204E-003  
  881.50  2.5787E-003  
  882.00  6.6791E-004  
  882.50  0.0000E+000  
  883.00  0.0000E+000  
  883.50  0.0000E+000  
  884.00  9.2592E-005  
  884.50  1.5690E-003  
  885.00  0.0000E+000  
  885.50  0.0000E+000  
  886.00  8.8170E-004  
  886.50  1.5626E-003  
  887.00  1.3180E-003  
  887.50  4.4973E-003  
  888.00  6.4816E-003  
  888.50  6.9534E-003  
  889.00  2.1260E-003  
  889.50  0.0000E+000  
  890.00  2.3670E-004  
  890.50  1.6179E-003  
  891.00  2.0548E-003  
  891.50  3.0994E-003  
  892.00  2.7346E-003  
  892.50  0.0000E+000  
  893.00  0.0000E+000  
  893.50  0.0000E+000  
  894.00  0.0000E+000  
  894.50  0.0000E+000  
  895.00  1.6571E-003  
  895.50  3.1633E-003  
  896.00  1.6905E-003  
  896.50  0.0000E+000  
  897.00  0.0000E+000  
  897.50  2.2272E-004  
  898.00  4.8303E-003  
  898.50  5.2494E-003  
  899.00  9.4973E-004  
  899.50  0.0000E+000  
