
# From lspdd.org
# 
# Name: LFC Rona Twister Domestique
# Indice spectral Valeur 
# MSI 0.02 
# SLI 0.02 
# IPI 3.22 
# Pourcentage de bleu 0.1 
# Caractéristique Valeur 
# CCT calculée (K) 592 
# CCT du fabricant (K) 1000 
# Tension (V) 120 
# Puissance (W) 13.0 
# Efficacité lumineuse (Lum/W) ND 
#
# Image: '/app/system/img_1s/2737/medium_image1.JPG?1612236488'
# 

  273.00  0.0000E+000  
  273.50  0.0000E+000  
  274.00  0.0000E+000  
  274.50  0.0000E+000  
  275.00  0.0000E+000  
  275.50  0.0000E+000  
  276.00  0.0000E+000  
  276.50  0.0000E+000  
  277.00  0.0000E+000  
  277.50  0.0000E+000  
  278.00  0.0000E+000  
  278.50  0.0000E+000  
  279.00  0.0000E+000  
  279.50  0.0000E+000  
  280.00  0.0000E+000  
  280.50  0.0000E+000  
  281.00  0.0000E+000  
  281.50  0.0000E+000  
  282.00  0.0000E+000  
  282.50  0.0000E+000  
  283.00  0.0000E+000  
  283.50  0.0000E+000  
  284.00  0.0000E+000  
  284.50  0.0000E+000  
  285.00  0.0000E+000  
  285.50  0.0000E+000  
  286.00  0.0000E+000  
  286.50  0.0000E+000  
  287.00  0.0000E+000  
  287.50  0.0000E+000  
  288.00  0.0000E+000  
  288.50  0.0000E+000  
  289.00  0.0000E+000  
  289.50  0.0000E+000  
  290.00  0.0000E+000  
  290.50  0.0000E+000  
  291.00  0.0000E+000  
  291.50  0.0000E+000  
  292.00  0.0000E+000  
  292.50  0.0000E+000  
  293.00  0.0000E+000  
  293.50  0.0000E+000  
  294.00  0.0000E+000  
  294.50  0.0000E+000  
  295.00  0.0000E+000  
  295.50  0.0000E+000  
  296.00  0.0000E+000  
  296.50  0.0000E+000  
  297.00  0.0000E+000  
  297.50  0.0000E+000  
  298.00  0.0000E+000  
  298.50  0.0000E+000  
  299.00  0.0000E+000  
  299.50  0.0000E+000  
  300.00  6.4877E-005  
  300.50  1.3430E-004  
  301.00  1.6974E-004  
  301.50  1.7859E-004  
  302.00  1.5321E-004  
  302.50  1.7073E-004  
  303.00  1.2161E-004  
  303.50  8.6572E-005  
  304.00  1.4196E-004  
  304.50  1.1197E-004  
  305.00  7.7751E-005  
  305.50  0.0000E+000  
  306.00  1.5666E-006  
  306.50  1.6584E-004  
  307.00  1.5624E-004  
  307.50  1.8688E-005  
  308.00  0.0000E+000  
  308.50  0.0000E+000  
  309.00  0.0000E+000  
  309.50  0.0000E+000  
  310.00  7.9538E-005  
  310.50  2.3197E-004  
  311.00  2.8088E-004  
  311.50  1.7777E-004  
  312.00  9.0930E-005  
  312.50  0.0000E+000  
  313.00  0.0000E+000  
  313.50  0.0000E+000  
  314.00  0.0000E+000  
  314.50  0.0000E+000  
  315.00  0.0000E+000  
  315.50  0.0000E+000  
  316.00  0.0000E+000  
  316.50  0.0000E+000  
  317.00  0.0000E+000  
  317.50  0.0000E+000  
  318.00  0.0000E+000  
  318.50  0.0000E+000  
  319.00  0.0000E+000  
  319.50  0.0000E+000  
  320.00  0.0000E+000  
  320.50  0.0000E+000  
  321.00  0.0000E+000  
  321.50  0.0000E+000  
  322.00  0.0000E+000  
  322.50  0.0000E+000  
  323.00  1.0320E-004  
  323.50  3.4459E-004  
  324.00  5.1865E-004  
  324.50  6.0792E-004  
  325.00  4.7544E-004  
  325.50  1.2219E-004  
  326.00  0.0000E+000  
  326.50  0.0000E+000  
  327.00  0.0000E+000  
  327.50  0.0000E+000  
  328.00  0.0000E+000  
  328.50  0.0000E+000  
  329.00  0.0000E+000  
  329.50  0.0000E+000  
  330.00  1.5219E-006  
  330.50  1.2053E-005  
  331.00  1.5142E-005  
  331.50  1.8573E-005  
  332.00  0.0000E+000  
  332.50  0.0000E+000  
  333.00  0.0000E+000  
  333.50  6.3314E-006  
  334.00  5.9215E-005  
  334.50  1.8637E-004  
  335.00  2.6064E-004  
  335.50  1.0328E-004  
  336.00  6.0595E-006  
  336.50  0.0000E+000  
  337.00  0.0000E+000  
  337.50  2.5149E-004  
  338.00  3.7240E-004  
  338.50  5.3402E-004  
  339.00  3.8162E-004  
  339.50  4.6495E-005  
  340.00  1.7827E-005  
  340.50  0.0000E+000  
  341.00  0.0000E+000  
  341.50  0.0000E+000  
  342.00  0.0000E+000  
  342.50  1.7066E-004  
  343.00  4.9842E-004  
  343.50  8.3057E-004  
  344.00  8.6498E-004  
  344.50  6.6478E-004  
  345.00  2.3499E-004  
  345.50  0.0000E+000  
  346.00  0.0000E+000  
  346.50  0.0000E+000  
  347.00  0.0000E+000  
  347.50  0.0000E+000  
  348.00  0.0000E+000  
  348.50  0.0000E+000  
  349.00  0.0000E+000  
  349.50  0.0000E+000  
  350.00  3.9580E-005  
  350.50  2.0505E-004  
  351.00  4.7225E-004  
  351.50  2.6691E-004  
  352.00  2.1300E-004  
  352.50  0.0000E+000  
  353.00  0.0000E+000  
  353.50  0.0000E+000  
  354.00  0.0000E+000  
  354.50  0.0000E+000  
  355.00  0.0000E+000  
  355.50  0.0000E+000  
  356.00  1.6740E-005  
  356.50  9.9693E-006  
  357.00  0.0000E+000  
  357.50  0.0000E+000  
  358.00  0.0000E+000  
  358.50  0.0000E+000  
  359.00  0.0000E+000  
  359.50  0.0000E+000  
  360.00  4.8155E-005  
  360.50  3.9546E-004  
  361.00  5.3748E-004  
  361.50  4.5670E-004  
  362.00  1.5542E-004  
  362.50  7.2857E-006  
  363.00  0.0000E+000  
  363.50  0.0000E+000  
  364.00  0.0000E+000  
  364.50  6.0227E-005  
  365.00  1.2296E-004  
  365.50  9.2227E-008  
  366.00  4.7954E-006  
  366.50  4.1052E-006  
  367.00  2.9077E-006  
  367.50  3.3250E-005  
  368.00  0.0000E+000  
  368.50  0.0000E+000  
  369.00  0.0000E+000  
  369.50  0.0000E+000  
  370.00  0.0000E+000  
  370.50  0.0000E+000  
  371.00  0.0000E+000  
  371.50  0.0000E+000  
  372.00  4.8781E-005  
  372.50  2.9103E-004  
  373.00  3.6427E-004  
  373.50  2.2615E-004  
  374.00  1.7851E-004  
  374.50  2.9389E-004  
  375.00  3.9271E-004  
  375.50  3.8017E-004  
  376.00  1.3837E-004  
  376.50  3.4153E-005  
  377.00  2.5700E-004  
  377.50  3.3646E-004  
  378.00  3.2027E-004  
  378.50  8.7808E-005  
  379.00  0.0000E+000  
  379.50  0.0000E+000  
  380.00  5.6466E-005  
  380.50  9.2032E-005  
  381.00  6.5192E-005  
  381.50  5.3653E-006  
  382.00  6.8749E-005  
  382.50  1.7522E-004  
  383.00  4.1488E-004  
  383.50  5.8232E-004  
  384.00  4.4611E-004  
  384.50  2.3907E-004  
  385.00  5.2537E-006  
  385.50  0.0000E+000  
  386.00  0.0000E+000  
  386.50  0.0000E+000  
  387.00  0.0000E+000  
  387.50  0.0000E+000  
  388.00  0.0000E+000  
  388.50  0.0000E+000  
  389.00  0.0000E+000  
  389.50  0.0000E+000  
  390.00  0.0000E+000  
  390.50  0.0000E+000  
  391.00  0.0000E+000  
  391.50  0.0000E+000  
  392.00  0.0000E+000  
  392.50  0.0000E+000  
  393.00  0.0000E+000  
  393.50  0.0000E+000  
  394.00  1.9683E-005  
  394.50  2.4215E-004  
  395.00  3.3910E-004  
  395.50  4.7136E-004  
  396.00  5.7332E-004  
  396.50  4.1711E-004  
  397.00  2.4112E-004  
  397.50  8.0077E-005  
  398.00  0.0000E+000  
  398.50  0.0000E+000  
  399.00  0.0000E+000  
  399.50  0.0000E+000  
  400.00  1.5490E-004  
  400.50  1.8040E-004  
  401.00  9.9242E-005  
  401.50  0.0000E+000  
  402.00  0.0000E+000  
  402.50  0.0000E+000  
  403.00  0.0000E+000  
  403.50  0.0000E+000  
  404.00  0.0000E+000  
  404.50  8.7263E-006  
  405.00  1.7115E-004  
  405.50  1.9930E-004  
  406.00  2.3167E-004  
  406.50  3.7497E-004  
  407.00  3.0334E-004  
  407.50  3.6930E-004  
  408.00  5.0838E-004  
  408.50  4.6145E-004  
  409.00  3.0127E-004  
  409.50  1.8581E-004  
  410.00  1.4005E-005  
  410.50  6.2413E-005  
  411.00  1.0507E-004  
  411.50  2.2058E-004  
  412.00  8.0743E-005  
  412.50  0.0000E+000  
  413.00  0.0000E+000  
  413.50  0.0000E+000  
  414.00  1.0595E-004  
  414.50  1.5498E-004  
  415.00  6.9669E-005  
  415.50  0.0000E+000  
  416.00  0.0000E+000  
  416.50  0.0000E+000  
  417.00  0.0000E+000  
  417.50  0.0000E+000  
  418.00  0.0000E+000  
  418.50  0.0000E+000  
  419.00  0.0000E+000  
  419.50  0.0000E+000  
  420.00  0.0000E+000  
  420.50  0.0000E+000  
  421.00  0.0000E+000  
  421.50  9.4378E-005  
  422.00  9.5058E-005  
  422.50  0.0000E+000  
  423.00  0.0000E+000  
  423.50  0.0000E+000  
  424.00  0.0000E+000  
  424.50  0.0000E+000  
  425.00  0.0000E+000  
  425.50  0.0000E+000  
  426.00  0.0000E+000  
  426.50  0.0000E+000  
  427.00  3.5891E-005  
  427.50  1.5848E-004  
  428.00  2.1053E-004  
  428.50  2.0218E-004  
  429.00  2.6273E-005  
  429.50  5.3245E-005  
  430.00  0.0000E+000  
  430.50  0.0000E+000  
  431.00  0.0000E+000  
  431.50  0.0000E+000  
  432.00  2.3270E-005  
  432.50  1.8845E-004  
  433.00  5.0989E-004  
  433.50  7.9019E-004  
  434.00  7.2572E-004  
  434.50  2.6464E-004  
  435.00  1.0301E-005  
  435.50  8.7896E-006  
  436.00  1.5190E-004  
  436.50  1.6098E-004  
  437.00  1.3242E-004  
  437.50  6.7609E-005  
  438.00  1.4595E-004  
  438.50  1.9721E-004  
  439.00  2.5689E-004  
  439.50  1.3943E-004  
  440.00  0.0000E+000  
  440.50  0.0000E+000  
  441.00  0.0000E+000  
  441.50  0.0000E+000  
  442.00  0.0000E+000  
  442.50  0.0000E+000  
  443.00  0.0000E+000  
  443.50  0.0000E+000  
  444.00  0.0000E+000  
  444.50  0.0000E+000  
  445.00  0.0000E+000  
  445.50  0.0000E+000  
  446.00  0.0000E+000  
  446.50  0.0000E+000  
  447.00  0.0000E+000  
  447.50  0.0000E+000  
  448.00  0.0000E+000  
  448.50  0.0000E+000  
  449.00  0.0000E+000  
  449.50  0.0000E+000  
  450.00  0.0000E+000  
  450.50  0.0000E+000  
  451.00  0.0000E+000  
  451.50  0.0000E+000  
  452.00  0.0000E+000  
  452.50  0.0000E+000  
  453.00  0.0000E+000  
  453.50  8.4822E-006  
  454.00  9.8122E-005  
  454.50  2.4115E-004  
  455.00  1.4882E-004  
  455.50  1.1658E-004  
  456.00  9.7165E-005  
  456.50  9.8953E-006  
  457.00  1.1209E-005  
  457.50  5.1763E-005  
  458.00  1.3934E-004  
  458.50  1.8401E-004  
  459.00  2.4235E-004  
  459.50  1.6893E-004  
  460.00  5.5456E-005  
  460.50  9.8900E-005  
  461.00  1.4106E-004  
  461.50  2.9655E-004  
  462.00  3.4206E-004  
  462.50  3.0525E-004  
  463.00  2.3824E-004  
  463.50  1.5383E-004  
  464.00  6.6194E-006  
  464.50  5.9806E-005  
  465.00  8.6957E-005  
  465.50  2.1308E-005  
  466.00  0.0000E+000  
  466.50  0.0000E+000  
  467.00  0.0000E+000  
  467.50  0.0000E+000  
  468.00  0.0000E+000  
  468.50  0.0000E+000  
  469.00  0.0000E+000  
  469.50  0.0000E+000  
  470.00  0.0000E+000  
  470.50  6.1588E-006  
  471.00  0.0000E+000  
  471.50  0.0000E+000  
  472.00  0.0000E+000  
  472.50  8.0974E-006  
  473.00  7.3061E-005  
  473.50  7.3529E-005  
  474.00  0.0000E+000  
  474.50  0.0000E+000  
  475.00  0.0000E+000  
  475.50  0.0000E+000  
  476.00  0.0000E+000  
  476.50  0.0000E+000  
  477.00  0.0000E+000  
  477.50  5.1532E-006  
  478.00  1.3219E-004  
  478.50  3.0777E-004  
  479.00  3.4850E-004  
  479.50  3.4870E-004  
  480.00  2.2431E-004  
  480.50  1.1043E-004  
  481.00  1.4482E-004  
  481.50  1.7327E-004  
  482.00  2.1324E-004  
  482.50  7.8138E-005  
  483.00  0.0000E+000  
  483.50  0.0000E+000  
  484.00  1.4507E-006  
  484.50  3.4972E-005  
  485.00  1.6204E-006  
  485.50  0.0000E+000  
  486.00  0.0000E+000  
  486.50  0.0000E+000  
  487.00  0.0000E+000  
  487.50  0.0000E+000  
  488.00  1.9220E-005  
  488.50  1.3721E-004  
  489.00  2.0470E-004  
  489.50  7.6440E-005  
  490.00  1.1672E-006  
  490.50  0.0000E+000  
  491.00  0.0000E+000  
  491.50  2.9021E-005  
  492.00  7.6223E-005  
  492.50  4.6873E-005  
  493.00  5.6090E-005  
  493.50  2.5923E-005  
  494.00  0.0000E+000  
  494.50  0.0000E+000  
  495.00  0.0000E+000  
  495.50  0.0000E+000  
  496.00  0.0000E+000  
  496.50  0.0000E+000  
  497.00  0.0000E+000  
  497.50  0.0000E+000  
  498.00  0.0000E+000  
  498.50  0.0000E+000  
  499.00  0.0000E+000  
  499.50  0.0000E+000  
  500.00  0.0000E+000  
  500.50  0.0000E+000  
  501.00  4.7260E-006  
  501.50  4.1957E-006  
  502.00  1.8746E-005  
  502.50  0.0000E+000  
  503.00  0.0000E+000  
  503.50  0.0000E+000  
  504.00  3.6242E-005  
  504.50  8.9942E-005  
  505.00  3.9539E-005  
  505.50  0.0000E+000  
  506.00  0.0000E+000  
  506.50  0.0000E+000  
  507.00  1.2155E-005  
  507.50  1.0877E-004  
  508.00  2.7022E-004  
  508.50  3.2266E-004  
  509.00  2.1263E-004  
  509.50  8.2173E-005  
  510.00  1.1518E-005  
  510.50  7.5164E-006  
  511.00  6.2967E-005  
  511.50  1.0192E-005  
  512.00  0.0000E+000  
  512.50  0.0000E+000  
  513.00  0.0000E+000  
  513.50  2.7845E-005  
  514.00  2.8855E-005  
  514.50  6.7087E-006  
  515.00  0.0000E+000  
  515.50  0.0000E+000  
  516.00  0.0000E+000  
  516.50  0.0000E+000  
  517.00  0.0000E+000  
  517.50  0.0000E+000  
  518.00  0.0000E+000  
  518.50  0.0000E+000  
  519.00  0.0000E+000  
  519.50  0.0000E+000  
  520.00  2.9697E-006  
  520.50  1.5537E-005  
  521.00  8.2155E-005  
  521.50  1.2225E-004  
  522.00  5.3473E-005  
  522.50  6.0714E-006  
  523.00  0.0000E+000  
  523.50  4.9007E-005  
  524.00  2.3407E-004  
  524.50  2.7828E-004  
  525.00  1.5790E-004  
  525.50  6.1317E-005  
  526.00  1.8380E-005  
  526.50  1.6346E-005  
  527.00  1.9647E-005  
  527.50  0.0000E+000  
  528.00  1.5113E-007  
  528.50  3.9182E-006  
  529.00  0.0000E+000  
  529.50  0.0000E+000  
  530.00  0.0000E+000  
  530.50  0.0000E+000  
  531.00  0.0000E+000  
  531.50  0.0000E+000  
  532.00  0.0000E+000  
  532.50  4.5203E-007  
  533.00  1.0373E-004  
  533.50  7.1738E-005  
  534.00  0.0000E+000  
  534.50  0.0000E+000  
  535.00  0.0000E+000  
  535.50  0.0000E+000  
  536.00  0.0000E+000  
  536.50  0.0000E+000  
  537.00  0.0000E+000  
  537.50  0.0000E+000  
  538.00  0.0000E+000  
  538.50  0.0000E+000  
  539.00  6.0725E-006  
  539.50  7.8203E-005  
  540.00  9.2370E-005  
  540.50  1.0090E-004  
  541.00  6.7335E-005  
  541.50  3.4114E-005  
  542.00  0.0000E+000  
  542.50  0.0000E+000  
  543.00  0.0000E+000  
  543.50  0.0000E+000  
  544.00  1.6539E-004  
  544.50  7.5664E-004  
  545.00  1.8962E-003  
  545.50  3.0124E-003  
  546.00  3.3320E-003  
  546.50  2.7664E-003  
  547.00  1.6606E-003  
  547.50  6.3111E-004  
  548.00  1.9049E-004  
  548.50  0.0000E+000  
  549.00  4.9456E-007  
  549.50  9.1337E-006  
  550.00  1.1561E-004  
  550.50  7.1954E-005  
  551.00  5.4969E-006  
  551.50  0.0000E+000  
  552.00  0.0000E+000  
  552.50  0.0000E+000  
  553.00  0.0000E+000  
  553.50  0.0000E+000  
  554.00  0.0000E+000  
  554.50  0.0000E+000  
  555.00  0.0000E+000  
  555.50  0.0000E+000  
  556.00  0.0000E+000  
  556.50  0.0000E+000  
  557.00  0.0000E+000  
  557.50  0.0000E+000  
  558.00  0.0000E+000  
  558.50  0.0000E+000  
  559.00  0.0000E+000  
  559.50  0.0000E+000  
  560.00  0.0000E+000  
  560.50  0.0000E+000  
  561.00  0.0000E+000  
  561.50  0.0000E+000  
  562.00  0.0000E+000  
  562.50  0.0000E+000  
  563.00  0.0000E+000  
  563.50  0.0000E+000  
  564.00  3.9085E-005  
  564.50  1.3645E-004  
  565.00  2.2611E-004  
  565.50  2.6422E-004  
  566.00  1.5469E-004  
  566.50  9.4219E-005  
  567.00  1.8095E-004  
  567.50  2.3855E-004  
  568.00  2.6992E-004  
  568.50  2.2684E-004  
  569.00  1.4418E-004  
  569.50  9.9728E-005  
  570.00  1.1728E-005  
  570.50  0.0000E+000  
  571.00  0.0000E+000  
  571.50  0.0000E+000  
  572.00  0.0000E+000  
  572.50  0.0000E+000  
  573.00  7.2034E-005  
  573.50  1.0323E-004  
  574.00  2.2494E-004  
  574.50  2.9220E-004  
  575.00  4.4873E-004  
  575.50  7.6903E-004  
  576.00  1.3827E-003  
  576.50  1.9248E-003  
  577.00  2.1071E-003  
  577.50  2.0367E-003  
  578.00  2.0482E-003  
  578.50  2.2500E-003  
  579.00  2.0920E-003  
  579.50  1.5838E-003  
  580.00  9.1298E-004  
  580.50  5.5727E-004  
  581.00  4.5831E-004  
  581.50  3.9063E-004  
  582.00  3.0243E-004  
  582.50  1.6330E-004  
  583.00  3.6343E-005  
  583.50  5.5798E-005  
  584.00  1.3467E-004  
  584.50  1.9475E-004  
  585.00  2.2202E-004  
  585.50  2.9262E-004  
  586.00  5.4000E-004  
  586.50  7.1721E-004  
  587.00  7.1802E-004  
  587.50  6.5005E-004  
  588.00  5.6233E-004  
  588.50  6.0945E-004  
  589.00  6.0532E-004  
  589.50  6.8451E-004  
  590.00  6.8518E-004  
  590.50  6.7486E-004  
  591.00  5.9318E-004  
  591.50  5.5274E-004  
  592.00  4.9168E-004  
  592.50  5.6059E-004  
  593.00  6.9989E-004  
  593.50  7.5470E-004  
  594.00  6.6749E-004  
  594.50  5.9411E-004  
  595.00  6.2642E-004  
  595.50  6.9631E-004  
  596.00  7.0766E-004  
  596.50  7.2465E-004  
  597.00  8.7178E-004  
  597.50  1.0196E-003  
  598.00  1.1424E-003  
  598.50  1.2256E-003  
  599.00  1.2229E-003  
  599.50  1.2596E-003  
  600.00  1.2647E-003  
  600.50  1.3071E-003  
  601.00  1.2918E-003  
  601.50  1.3174E-003  
  602.00  1.4193E-003  
  602.50  1.5493E-003  
  603.00  1.7456E-003  
  603.50  1.9467E-003  
  604.00  2.1984E-003  
  604.50  2.3724E-003  
  605.00  2.4524E-003  
  605.50  2.5172E-003  
  606.00  2.7673E-003  
  606.50  3.1184E-003  
  607.00  3.6730E-003  
  607.50  4.1480E-003  
  608.00  4.7766E-003  
  608.50  5.6993E-003  
  609.00  7.2359E-003  
  609.50  1.0573E-002  
  610.00  1.5705E-002  
  610.50  2.2299E-002  
  611.00  2.7225E-002  
  611.50  2.8238E-002  
  612.00  2.5378E-002  
  612.50  2.1344E-002  
  613.00  1.8574E-002  
  613.50  1.7156E-002  
  614.00  1.6638E-002  
  614.50  1.6581E-002  
  615.00  1.6335E-002  
  615.50  1.6054E-002  
  616.00  1.5749E-002  
  616.50  1.5814E-002  
  617.00  1.6133E-002  
  617.50  1.6816E-002  
  618.00  1.7900E-002  
  618.50  1.9298E-002  
  619.00  2.1035E-002  
  619.50  2.3302E-002  
  620.00  2.6027E-002  
  620.50  2.9301E-002  
  621.00  3.3218E-002  
  621.50  3.7942E-002  
  622.00  4.2898E-002  
  622.50  4.7657E-002  
  623.00  5.1848E-002  
  623.50  5.5290E-002  
  624.00  5.7887E-002  
  624.50  5.9593E-002  
  625.00  6.0427E-002  
  625.50  6.0472E-002  
  626.00  6.0059E-002  
  626.50  6.0413E-002  
  627.00  6.2013E-002  
  627.50  6.4995E-002  
  628.00  6.8788E-002  
  628.50  7.3523E-002  
  629.00  7.8917E-002  
  629.50  8.4654E-002  
  630.00  8.9926E-002  
  630.50  9.3899E-002  
  631.00  9.5822E-002  
  631.50  9.5377E-002  
  632.00  9.3140E-002  
  632.50  8.9571E-002  
  633.00  8.5652E-002  
  633.50  8.1949E-002  
  634.00  7.8760E-002  
  634.50  7.5374E-002  
  635.00  7.2192E-002  
  635.50  6.9234E-002  
  636.00  6.7578E-002  
  636.50  6.7141E-002  
  637.00  6.9114E-002  
  637.50  7.3686E-002  
  638.00  8.1915E-002  
  638.50  9.3671E-002  
  639.00  1.0783E-001  
  639.50  1.2210E-001  
  640.00  1.3257E-001  
  640.50  1.3741E-001  
  641.00  1.3554E-001  
  641.50  1.2870E-001  
  642.00  1.1870E-001  
  642.50  1.0865E-001  
  643.00  1.0055E-001  
  643.50  9.5084E-002  
  644.00  9.1880E-002  
  644.50  9.1107E-002  
  645.00  9.2489E-002  
  645.50  9.5514E-002  
  646.00  9.9696E-002  
  646.50  1.0570E-001  
  647.00  1.1376E-001  
  647.50  1.2322E-001  
  648.00  1.3442E-001  
  648.50  1.4636E-001  
  649.00  1.5944E-001  
  649.50  1.7289E-001  
  650.00  1.8552E-001  
  650.50  1.9583E-001  
  651.00  2.0239E-001  
  651.50  2.0522E-001  
  652.00  2.0655E-001  
  652.50  2.0727E-001  
  653.00  2.0983E-001  
  653.50  2.1402E-001  
  654.00  2.2149E-001  
  654.50  2.3206E-001  
  655.00  2.4611E-001  
  655.50  2.6267E-001  
  656.00  2.7926E-001  
  656.50  2.9405E-001  
  657.00  3.0504E-001  
  657.50  3.1286E-001  
  658.00  3.1491E-001  
  658.50  3.1156E-001  
  659.00  3.0190E-001  
  659.50  2.8766E-001  
  660.00  2.7069E-001  
  660.50  2.5270E-001  
  661.00  2.3586E-001  
  661.50  2.1987E-001  
  662.00  2.0612E-001  
  662.50  1.9456E-001  
  663.00  1.8508E-001  
  663.50  1.7653E-001  
  664.00  1.6881E-001  
  664.50  1.6165E-001  
  665.00  1.5451E-001  
  665.50  1.4622E-001  
  666.00  1.3723E-001  
  666.50  1.2812E-001  
  667.00  1.1918E-001  
  667.50  1.0955E-001  
  668.00  9.9725E-002  
  668.50  9.0110E-002  
  669.00  8.1583E-002  
  669.50  7.3493E-002  
  670.00  6.6047E-002  
  670.50  5.9715E-002  
  671.00  5.4453E-002  
  671.50  4.9950E-002  
  672.00  4.6063E-002  
  672.50  4.2909E-002  
  673.00  4.0492E-002  
  673.50  3.8612E-002  
  674.00  3.6788E-002  
  674.50  3.5147E-002  
  675.00  3.3431E-002  
  675.50  3.2102E-002  
  676.00  3.0718E-002  
  676.50  2.9486E-002  
  677.00  2.8360E-002  
  677.50  2.7658E-002  
  678.00  2.7028E-002  
  678.50  2.6432E-002  
  679.00  2.5924E-002  
  679.50  2.5524E-002  
  680.00  2.5042E-002  
  680.50  2.4170E-002  
  681.00  2.3470E-002  
  681.50  2.2947E-002  
  682.00  2.2193E-002  
  682.50  2.1398E-002  
  683.00  2.0507E-002  
  683.50  1.9980E-002  
  684.00  1.9371E-002  
  684.50  1.8757E-002  
  685.00  1.7870E-002  
  685.50  1.7325E-002  
  686.00  1.7078E-002  
  686.50  1.7329E-002  
  687.00  1.7478E-002  
  687.50  1.7334E-002  
  688.00  1.6598E-002  
  688.50  1.5494E-002  
  689.00  1.4494E-002  
  689.50  1.4288E-002  
  690.00  1.4455E-002  
  690.50  1.4635E-002  
  691.00  1.3863E-002  
  691.50  1.2629E-002  
  692.00  1.1827E-002  
  692.50  1.1552E-002  
  693.00  1.1404E-002  
  693.50  1.0858E-002  
  694.00  1.0027E-002  
  694.50  9.2284E-003  
  695.00  8.6190E-003  
  695.50  8.5505E-003  
  696.00  8.3885E-003  
  696.50  8.1354E-003  
  697.00  7.5360E-003  
  697.50  7.2775E-003  
  698.00  6.9510E-003  
  698.50  6.9393E-003  
  699.00  6.7369E-003  
  699.50  6.4787E-003  
  700.00  6.1684E-003  
  700.50  6.0961E-003  
  701.00  5.9969E-003  
  701.50  5.5955E-003  
  702.00  5.0423E-003  
  702.50  4.8336E-003  
  703.00  5.0389E-003  
  703.50  5.3391E-003  
  704.00  5.6641E-003  
  704.50  6.0388E-003  
  705.00  6.7443E-003  
  705.50  7.6887E-003  
  706.00  8.4792E-003  
  706.50  8.8814E-003  
  707.00  8.8967E-003  
  707.50  8.6103E-003  
  708.00  8.4293E-003  
  708.50  8.3174E-003  
  709.00  8.1836E-003  
  709.50  7.2694E-003  
  710.00  6.1155E-003  
  710.50  5.3410E-003  
  711.00  5.7495E-003  
  711.50  6.3500E-003  
  712.00  6.7568E-003  
  712.50  6.3496E-003  
  713.00  5.6045E-003  
  713.50  4.6527E-003  
  714.00  3.7424E-003  
  714.50  3.0182E-003  
  715.00  2.4272E-003  
  715.50  2.1001E-003  
  716.00  1.8877E-003  
  716.50  1.8315E-003  
  717.00  1.7099E-003  
  717.50  1.7967E-003  
  718.00  2.1593E-003  
  718.50  2.3344E-003  
  719.00  2.2024E-003  
  719.50  1.9456E-003  
  720.00  2.0677E-003  
  720.50  2.1748E-003  
  721.00  1.9150E-003  
  721.50  1.7874E-003  
  722.00  1.7499E-003  
  722.50  1.8716E-003  
  723.00  1.4952E-003  
  723.50  8.2059E-004  
  724.00  7.9253E-004  
  724.50  1.1087E-003  
  725.00  1.4105E-003  
  725.50  9.7399E-004  
  726.00  7.7949E-004  
  726.50  9.1085E-004  
  727.00  1.1011E-003  
  727.50  1.1115E-003  
  728.00  1.2081E-003  
  728.50  1.3722E-003  
  729.00  1.1430E-003  
  729.50  1.0269E-003  
  730.00  1.0345E-003  
  730.50  1.1039E-003  
  731.00  8.2614E-004  
  731.50  8.8740E-004  
  732.00  1.0001E-003  
  732.50  1.1049E-003  
  733.00  9.5212E-004  
  733.50  9.9997E-004  
  734.00  9.7015E-004  
  734.50  1.0332E-003  
  735.00  1.0467E-003  
  735.50  9.3758E-004  
  736.00  1.0010E-003  
  736.50  1.2923E-003  
  737.00  1.9358E-003  
  737.50  2.2762E-003  
  738.00  2.0570E-003  
  738.50  1.6672E-003  
  739.00  1.4548E-003  
  739.50  1.4846E-003  
  740.00  1.2132E-003  
  740.50  8.6263E-004  
  741.00  9.4952E-004  
  741.50  1.3613E-003  
  742.00  1.6896E-003  
  742.50  1.4428E-003  
  743.00  1.2323E-003  
  743.50  8.8464E-004  
  744.00  6.7435E-004  
  744.50  6.4135E-004  
  745.00  8.7357E-004  
  745.50  1.0651E-003  
  746.00  1.1609E-003  
  746.50  9.9377E-004  
  747.00  6.5282E-004  
  747.50  6.7911E-004  
  748.00  3.9268E-004  
  748.50  5.2945E-004  
  749.00  6.8638E-004  
  749.50  1.1591E-003  
  750.00  1.3590E-003  
  750.50  1.6586E-003  
  751.00  1.8183E-003  
  751.50  1.4909E-003  
  752.00  8.7822E-004  
  752.50  8.6631E-004  
  753.00  1.2664E-003  
  753.50  1.2555E-003  
  754.00  7.6335E-004  
  754.50  2.9814E-004  
  755.00  2.0734E-004  
  755.50  0.0000E+000  
  756.00  6.6714E-005  
  756.50  4.0978E-004  
  757.00  6.3916E-004  
  757.50  3.5002E-004  
  758.00  3.2837E-004  
  758.50  5.8090E-004  
  759.00  7.9195E-004  
  759.50  1.0800E-003  
  760.00  1.3808E-003  
  760.50  1.1544E-003  
  761.00  5.7532E-004  
  761.50  3.4948E-004  
  762.00  3.5986E-004  
  762.50  8.4537E-004  
  763.00  1.8776E-003  
  763.50  3.0266E-003  
  764.00  2.5135E-003  
  764.50  1.5326E-003  
  765.00  5.2416E-004  
  765.50  2.8555E-004  
  766.00  2.1782E-004  
  766.50  4.9228E-004  
  767.00  4.9274E-004  
  767.50  2.4105E-004  
  768.00  2.3894E-004  
  768.50  7.1544E-004  
  769.00  1.4407E-003  
  769.50  1.4016E-003  
  770.00  1.5047E-003  
  770.50  1.5167E-003  
  771.00  1.4264E-003  
  771.50  1.0588E-003  
  772.00  1.0316E-003  
  772.50  1.3206E-003  
  773.00  1.6936E-003  
  773.50  1.5685E-003  
  774.00  1.0136E-003  
  774.50  1.2505E-003  
  775.00  1.0721E-003  
  775.50  1.3059E-003  
  776.00  1.4839E-003  
  776.50  1.3880E-003  
  777.00  8.2741E-004  
  777.50  8.0681E-004  
  778.00  9.0998E-004  
  778.50  2.5999E-004  
  779.00  0.0000E+000  
  779.50  0.0000E+000  
  780.00  0.0000E+000  
  780.50  0.0000E+000  
  781.00  6.6061E-006  
  781.50  3.5523E-004  
  782.00  1.0644E-003  
  782.50  1.3403E-003  
  783.00  2.6017E-004  
  783.50  2.0128E-005  
  784.00  1.8109E-004  
  784.50  6.0921E-004  
  785.00  4.2115E-004  
  785.50  1.3333E-004  
  786.00  4.4543E-004  
  786.50  1.4500E-004  
  787.00  7.8695E-006  
  787.50  0.0000E+000  
  788.00  8.7012E-004  
  788.50  1.4240E-003  
  789.00  1.1075E-003  
  789.50  3.3569E-004  
  790.00  2.5941E-004  
  790.50  1.9282E-004  
  791.00  2.7185E-004  
  791.50  6.6379E-005  
  792.00  0.0000E+000  
  792.50  0.0000E+000  
  793.00  0.0000E+000  
  793.50  0.0000E+000  
  794.00  0.0000E+000  
  794.50  6.1322E-004  
  795.00  1.2519E-003  
  795.50  8.9395E-004  
  796.00  2.8699E-005  
  796.50  7.3030E-004  
  797.00  1.4576E-003  
  797.50  1.5218E-003  
  798.00  6.9207E-004  
  798.50  2.6031E-004  
  799.00  1.9857E-004  
  799.50  8.2917E-004  
  800.00  1.6258E-003  
  800.50  1.4139E-003  
  801.00  1.0419E-003  
  801.50  9.8889E-004  
  802.00  1.6068E-003  
  802.50  1.6506E-003  
  803.00  1.6613E-003  
  803.50  9.8169E-004  
  804.00  1.1558E-003  
  804.50  7.5523E-004  
  805.00  1.2451E-003  
  805.50  1.4381E-003  
  806.00  1.0415E-003  
  806.50  6.2869E-004  
  807.00  7.6308E-004  
  807.50  7.6099E-004  
  808.00  7.1364E-004  
  808.50  2.0489E-004  
  809.00  7.3955E-004  
  809.50  1.4074E-003  
  810.00  2.0476E-003  
  810.50  2.9738E-003  
  811.00  4.4277E-003  
  811.50  4.6748E-003  
  812.00  3.5516E-003  
  812.50  1.9833E-003  
  813.00  7.0796E-004  
  813.50  3.2277E-004  
  814.00  1.0850E-003  
  814.50  2.0120E-003  
  815.00  1.3125E-003  
  815.50  1.1844E-004  
  816.00  9.4008E-006  
  816.50  1.4039E-003  
  817.00  1.8826E-003  
  817.50  8.5933E-004  
  818.00  0.0000E+000  
  818.50  0.0000E+000  
  819.00  0.0000E+000  
  819.50  0.0000E+000  
  820.00  0.0000E+000  
  820.50  0.0000E+000  
  821.00  5.8275E-004  
  821.50  1.0631E-003  
  822.00  1.8802E-003  
  822.50  1.5957E-003  
  823.00  1.1139E-003  
  823.50  1.0266E-003  
  824.00  9.4334E-005  
  824.50  0.0000E+000  
  825.00  0.0000E+000  
  825.50  2.9727E-004  
  826.00  1.5583E-003  
  826.50  1.6317E-003  
  827.00  5.9098E-004  
  827.50  4.2719E-004  
  828.00  8.0852E-004  
  828.50  1.4516E-005  
  829.00  0.0000E+000  
  829.50  0.0000E+000  
  830.00  0.0000E+000  
  830.50  0.0000E+000  
  831.00  3.0918E-004  
  831.50  1.9085E-003  
  832.00  2.0387E-003  
  832.50  2.2003E-003  
  833.00  1.0802E-004  
  833.50  0.0000E+000  
  834.00  0.0000E+000  
  834.50  0.0000E+000  
  835.00  0.0000E+000  
  835.50  0.0000E+000  
  836.00  0.0000E+000  
  836.50  6.2309E-004  
  837.00  9.3025E-007  
  837.50  1.0292E-004  
  838.00  3.4710E-004  
  838.50  1.8401E-003  
  839.00  1.0014E-003  
  839.50  7.5696E-005  
  840.00  3.3222E-004  
  840.50  2.2927E-003  
  841.00  3.2005E-003  
  841.50  3.2663E-003  
  842.00  2.6362E-003  
  842.50  2.0586E-003  
  843.00  2.0296E-003  
  843.50  2.2001E-003  
  844.00  2.0680E-003  
  844.50  8.6895E-005  
  845.00  0.0000E+000  
  845.50  2.3435E-004  
  846.00  3.0028E-004  
  846.50  2.9416E-005  
  847.00  0.0000E+000  
  847.50  0.0000E+000  
  848.00  2.2039E-004  
  848.50  1.5275E-004  
  849.00  8.0113E-004  
  849.50  1.0980E-003  
  850.00  5.9309E-004  
  850.50  0.0000E+000  
  851.00  0.0000E+000  
  851.50  0.0000E+000  
  852.00  4.3170E-005  
  852.50  7.1888E-004  
  853.00  3.9006E-004  
  853.50  0.0000E+000  
  854.00  0.0000E+000  
  854.50  0.0000E+000  
  855.00  0.0000E+000  
  855.50  0.0000E+000  
  856.00  0.0000E+000  
  856.50  0.0000E+000  
  857.00  0.0000E+000  
  857.50  0.0000E+000  
  858.00  0.0000E+000  
  858.50  3.2692E-005  
  859.00  0.0000E+000  
  859.50  9.2821E-005  
  860.00  1.5145E-003  
  860.50  2.9096E-003  
  861.00  8.9406E-004  
  861.50  0.0000E+000  
  862.00  2.1841E-004  
  862.50  7.3170E-004  
  863.00  5.1012E-004  
  863.50  0.0000E+000  
  864.00  4.5741E-006  
  864.50  1.7392E-003  
  865.00  1.7209E-003  
  865.50  1.1419E-003  
  866.00  2.9863E-003  
  866.50  3.0206E-003  
  867.00  4.8906E-004  
  867.50  0.0000E+000  
  868.00  0.0000E+000  
  868.50  1.2898E-003  
  869.00  1.6912E-003  
  869.50  1.5990E-003  
  870.00  1.9665E-003  
  870.50  1.2651E-003  
  871.00  2.5331E-004  
  871.50  0.0000E+000  
  872.00  0.0000E+000  
  872.50  0.0000E+000  
  873.00  8.8976E-005  
  873.50  8.5659E-004  
  874.00  0.0000E+000  
  874.50  4.7427E-005  
  875.00  2.0364E-004  
  875.50  1.9606E-003  
  876.00  2.1126E-003  
  876.50  0.0000E+000  
  877.00  0.0000E+000  
  877.50  0.0000E+000  
  878.00  0.0000E+000  
  878.50  2.7277E-004  
  879.00  3.0205E-003  
  879.50  3.1758E-003  
  880.00  4.5166E-004  
  880.50  1.8649E-004  
  881.00  3.5268E-003  
  881.50  6.7496E-003  
  882.00  5.5287E-003  
  882.50  2.8363E-003  
  883.00  1.2958E-003  
  883.50  9.5359E-004  
  884.00  4.1941E-003  
  884.50  3.2906E-003  
  885.00  3.1402E-004  
  885.50  0.0000E+000  
  886.00  1.1631E-003  
  886.50  5.3027E-005  
  887.00  0.0000E+000  
  887.50  0.0000E+000  
  888.00  3.7293E-004  
  888.50  1.6020E-003  
  889.00  1.3360E-004  
  889.50  3.9396E-006  
  890.00  2.1296E-004  
  890.50  4.3179E-004  
  891.00  0.0000E+000  
  891.50  0.0000E+000  
  892.00  0.0000E+000  
  892.50  0.0000E+000  
  893.00  0.0000E+000  
  893.50  0.0000E+000  
  894.00  1.3370E-003  
  894.50  1.5774E-003  
  895.00  4.8272E-004  
  895.50  0.0000E+000  
  896.00  0.0000E+000  
  896.50  1.9739E-003  
  897.00  2.5897E-003  
  897.50  0.0000E+000  
  898.00  0.0000E+000  
  898.50  0.0000E+000  
  899.00  0.0000E+000  
  899.50  0.0000E+000  
