
# From lspdd.org
# 
# Name: INC Sylvania A19 Domestique
# Indice spectral Valeur 
# MSI 2.18 
# SLI 0.81 
# IPI 9.69 
# Pourcentage de bleu 2.7 
# Caractéristique Valeur 
# CCT calculée (K) 2489 
# CCT du fabricant (K) 2000 
# Tension (V) 120 
# Puissance (W) 75.0 
# Efficacité lumineuse (Lum/W) ND 
#
# Image: '/app/system/img_2s/2746/medium_image2.jpg?1612236514'
# Image: '/app/system/img_1s/2746/medium_image1.jpg?1612236512'
# 

  273.00  0.0000E+000  
  273.50  0.0000E+000  
  274.00  0.0000E+000  
  274.50  0.0000E+000  
  275.00  0.0000E+000  
  275.50  0.0000E+000  
  276.00  0.0000E+000  
  276.50  0.0000E+000  
  277.00  0.0000E+000  
  277.50  0.0000E+000  
  278.00  0.0000E+000  
  278.50  0.0000E+000  
  279.00  0.0000E+000  
  279.50  0.0000E+000  
  280.00  0.0000E+000  
  280.50  0.0000E+000  
  281.00  0.0000E+000  
  281.50  0.0000E+000  
  282.00  0.0000E+000  
  282.50  0.0000E+000  
  283.00  0.0000E+000  
  283.50  0.0000E+000  
  284.00  0.0000E+000  
  284.50  0.0000E+000  
  285.00  0.0000E+000  
  285.50  0.0000E+000  
  286.00  0.0000E+000  
  286.50  0.0000E+000  
  287.00  0.0000E+000  
  287.50  0.0000E+000  
  288.00  0.0000E+000  
  288.50  0.0000E+000  
  289.00  0.0000E+000  
  289.50  0.0000E+000  
  290.00  0.0000E+000  
  290.50  0.0000E+000  
  291.00  0.0000E+000  
  291.50  0.0000E+000  
  292.00  0.0000E+000  
  292.50  0.0000E+000  
  293.00  0.0000E+000  
  293.50  0.0000E+000  
  294.00  0.0000E+000  
  294.50  0.0000E+000  
  295.00  0.0000E+000  
  295.50  0.0000E+000  
  296.00  0.0000E+000  
  296.50  0.0000E+000  
  297.00  0.0000E+000  
  297.50  0.0000E+000  
  298.00  0.0000E+000  
  298.50  0.0000E+000  
  299.00  0.0000E+000  
  299.50  0.0000E+000  
  300.00  6.4912E-005  
  300.50  2.1738E-004  
  301.00  2.2836E-004  
  301.50  3.0174E-004  
  302.00  3.4763E-004  
  302.50  2.9678E-004  
  303.00  2.0258E-004  
  303.50  0.0000E+000  
  304.00  0.0000E+000  
  304.50  0.0000E+000  
  305.00  0.0000E+000  
  305.50  1.0507E-004  
  306.00  2.0597E-004  
  306.50  3.1596E-004  
  307.00  4.2394E-004  
  307.50  1.9795E-004  
  308.00  1.5956E-004  
  308.50  9.4185E-005  
  309.00  2.8269E-004  
  309.50  1.3435E-004  
  310.00  0.0000E+000  
  310.50  0.0000E+000  
  311.00  0.0000E+000  
  311.50  0.0000E+000  
  312.00  0.0000E+000  
  312.50  4.8514E-007  
  313.00  1.2727E-004  
  313.50  3.6657E-004  
  314.00  6.8518E-004  
  314.50  7.1081E-004  
  315.00  6.0392E-004  
  315.50  7.1513E-004  
  316.00  3.4526E-004  
  316.50  0.0000E+000  
  317.00  0.0000E+000  
  317.50  0.0000E+000  
  318.00  0.0000E+000  
  318.50  0.0000E+000  
  319.00  0.0000E+000  
  319.50  0.0000E+000  
  320.00  0.0000E+000  
  320.50  3.6914E-006  
  321.00  2.4382E-004  
  321.50  4.5705E-004  
  322.00  4.4002E-004  
  322.50  4.5533E-004  
  323.00  2.0052E-004  
  323.50  8.8626E-006  
  324.00  1.2081E-005  
  324.50  0.0000E+000  
  325.00  0.0000E+000  
  325.50  0.0000E+000  
  326.00  0.0000E+000  
  326.50  0.0000E+000  
  327.00  0.0000E+000  
  327.50  0.0000E+000  
  328.00  0.0000E+000  
  328.50  0.0000E+000  
  329.00  0.0000E+000  
  329.50  0.0000E+000  
  330.00  0.0000E+000  
  330.50  0.0000E+000  
  331.00  0.0000E+000  
  331.50  0.0000E+000  
  332.00  0.0000E+000  
  332.50  0.0000E+000  
  333.00  1.0486E-004  
  333.50  2.0132E-004  
  334.00  2.6235E-004  
  334.50  3.5917E-004  
  335.00  3.9046E-004  
  335.50  7.2301E-004  
  336.00  6.6226E-004  
  336.50  3.2836E-004  
  337.00  2.0681E-004  
  337.50  2.5227E-006  
  338.00  5.1442E-006  
  338.50  1.6439E-004  
  339.00  1.6345E-004  
  339.50  2.1120E-004  
  340.00  3.4862E-004  
  340.50  3.6624E-004  
  341.00  6.4195E-004  
  341.50  6.5555E-004  
  342.00  8.7633E-004  
  342.50  8.8838E-004  
  343.00  5.6715E-004  
  343.50  3.8248E-004  
  344.00  1.5704E-004  
  344.50  1.6425E-004  
  345.00  4.9745E-004  
  345.50  6.3504E-004  
  346.00  5.6153E-004  
  346.50  5.2817E-004  
  347.00  2.8977E-004  
  347.50  1.8436E-004  
  348.00  2.8865E-004  
  348.50  2.7477E-004  
  349.00  5.0098E-004  
  349.50  5.1963E-004  
  350.00  4.0441E-004  
  350.50  3.1448E-004  
  351.00  5.7286E-004  
  351.50  6.9016E-004  
  352.00  9.3727E-004  
  352.50  1.2406E-003  
  353.00  9.7521E-004  
  353.50  7.7218E-004  
  354.00  7.6398E-005  
  354.50  0.0000E+000  
  355.00  0.0000E+000  
  355.50  2.2751E-005  
  356.00  3.6714E-004  
  356.50  3.8481E-004  
  357.00  5.1689E-004  
  357.50  6.3316E-004  
  358.00  6.7200E-004  
  358.50  8.0739E-004  
  359.00  6.1614E-004  
  359.50  5.2095E-004  
  360.00  4.7726E-004  
  360.50  4.3359E-004  
  361.00  3.8939E-004  
  361.50  9.1666E-005  
  362.00  0.0000E+000  
  362.50  0.0000E+000  
  363.00  0.0000E+000  
  363.50  0.0000E+000  
  364.00  0.0000E+000  
  364.50  3.0468E-004  
  365.00  5.6337E-004  
  365.50  5.8340E-004  
  366.00  6.1975E-004  
  366.50  5.6818E-004  
  367.00  5.8424E-004  
  367.50  6.7234E-004  
  368.00  6.2715E-004  
  368.50  7.4950E-004  
  369.00  7.4035E-004  
  369.50  6.5467E-004  
  370.00  5.7628E-004  
  370.50  4.6815E-004  
  371.00  4.3282E-004  
  371.50  3.4057E-004  
  372.00  3.0121E-004  
  372.50  5.5970E-005  
  373.00  0.0000E+000  
  373.50  0.0000E+000  
  374.00  0.0000E+000  
  374.50  1.3852E-006  
  375.00  9.5770E-005  
  375.50  4.4783E-004  
  376.00  6.8458E-004  
  376.50  6.5826E-004  
  377.00  3.1470E-004  
  377.50  3.8148E-005  
  378.00  1.6609E-004  
  378.50  4.1203E-004  
  379.00  5.6197E-004  
  379.50  4.4681E-004  
  380.00  4.3122E-004  
  380.50  5.0128E-004  
  381.00  6.4522E-004  
  381.50  8.5138E-004  
  382.00  9.0811E-004  
  382.50  1.1035E-003  
  383.00  1.2636E-003  
  383.50  1.2832E-003  
  384.00  1.1992E-003  
  384.50  8.8008E-004  
  385.00  6.4247E-004  
  385.50  4.6708E-004  
  386.00  3.1382E-004  
  386.50  3.3705E-004  
  387.00  3.9365E-004  
  387.50  5.0062E-004  
  388.00  5.8692E-004  
  388.50  4.2884E-004  
  389.00  3.9492E-004  
  389.50  2.6552E-004  
  390.00  2.1933E-004  
  390.50  2.4712E-004  
  391.00  3.2284E-004  
  391.50  5.8770E-004  
  392.00  9.9234E-004  
  392.50  1.2857E-003  
  393.00  1.5721E-003  
  393.50  1.5658E-003  
  394.00  1.3603E-003  
  394.50  1.0071E-003  
  395.00  6.9655E-004  
  395.50  6.6774E-004  
  396.00  5.5230E-004  
  396.50  6.0686E-004  
  397.00  6.7835E-004  
  397.50  6.0833E-004  
  398.00  6.2179E-004  
  398.50  5.6360E-004  
  399.00  8.6595E-004  
  399.50  1.3082E-003  
  400.00  1.5396E-003  
  400.50  1.5051E-003  
  401.00  1.3314E-003  
  401.50  1.4238E-003  
  402.00  1.4973E-003  
  402.50  1.3843E-003  
  403.00  1.1373E-003  
  403.50  1.0449E-003  
  404.00  8.9781E-004  
  404.50  8.0273E-004  
  405.00  6.3646E-004  
  405.50  4.6580E-004  
  406.00  4.6106E-004  
  406.50  7.3803E-004  
  407.00  8.6088E-004  
  407.50  1.1202E-003  
  408.00  1.3647E-003  
  408.50  1.4010E-003  
  409.00  1.3073E-003  
  409.50  1.2517E-003  
  410.00  1.0942E-003  
  410.50  1.0626E-003  
  411.00  9.9020E-004  
  411.50  7.2730E-004  
  412.00  6.6244E-004  
  412.50  5.5662E-004  
  413.00  5.0907E-004  
  413.50  7.2628E-004  
  414.00  9.6342E-004  
  414.50  1.2910E-003  
  415.00  1.3703E-003  
  415.50  1.2313E-003  
  416.00  1.0653E-003  
  416.50  9.0549E-004  
  417.00  8.7668E-004  
  417.50  6.8263E-004  
  418.00  6.8779E-004  
  418.50  6.9018E-004  
  419.00  6.1169E-004  
  419.50  5.1811E-004  
  420.00  3.3869E-004  
  420.50  3.1248E-004  
  421.00  3.8700E-004  
  421.50  3.4405E-004  
  422.00  3.4372E-004  
  422.50  4.9158E-004  
  423.00  8.2160E-004  
  423.50  1.3172E-003  
  424.00  1.4300E-003  
  424.50  1.2258E-003  
  425.00  1.1284E-003  
  425.50  9.9499E-004  
  426.00  8.0596E-004  
  426.50  6.6879E-004  
  427.00  2.6639E-004  
  427.50  1.6159E-004  
  428.00  1.9906E-004  
  428.50  3.0648E-004  
  429.00  5.4019E-004  
  429.50  8.0111E-004  
  430.00  8.9998E-004  
  430.50  9.5830E-004  
  431.00  9.2221E-004  
  431.50  6.7786E-004  
  432.00  5.6806E-004  
  432.50  3.4629E-004  
  433.00  0.0000E+000  
  433.50  0.0000E+000  
  434.00  0.0000E+000  
  434.50  7.6886E-006  
  435.00  9.7595E-005  
  435.50  2.2533E-004  
  436.00  6.8457E-005  
  436.50  0.0000E+000  
  437.00  3.5519E-005  
  437.50  1.2976E-004  
  438.00  3.4797E-004  
  438.50  4.8853E-004  
  439.00  5.3751E-004  
  439.50  4.3851E-004  
  440.00  1.5373E-004  
  440.50  1.7958E-004  
  441.00  1.6142E-004  
  441.50  2.9873E-004  
  442.00  2.0833E-004  
  442.50  9.2087E-006  
  443.00  2.7397E-006  
  443.50  6.1079E-005  
  444.00  2.6917E-004  
  444.50  4.5940E-004  
  445.00  5.1789E-004  
  445.50  6.2592E-004  
  446.00  7.7589E-004  
  446.50  7.7026E-004  
  447.00  5.3638E-004  
  447.50  4.9400E-004  
  448.00  3.6443E-004  
  448.50  4.7971E-004  
  449.00  3.9961E-004  
  449.50  1.7225E-004  
  450.00  0.0000E+000  
  450.50  0.0000E+000  
  451.00  0.0000E+000  
  451.50  0.0000E+000  
  452.00  0.0000E+000  
  452.50  8.6829E-005  
  453.00  2.7494E-004  
  453.50  4.8931E-004  
  454.00  7.0203E-004  
  454.50  9.6906E-004  
  455.00  9.2661E-004  
  455.50  6.3112E-004  
  456.00  3.1826E-004  
  456.50  2.4715E-005  
  457.00  0.0000E+000  
  457.50  0.0000E+000  
  458.00  0.0000E+000  
  458.50  0.0000E+000  
  459.00  0.0000E+000  
  459.50  9.8620E-005  
  460.00  9.3895E-005  
  460.50  7.5117E-005  
  461.00  2.5955E-004  
  461.50  3.6793E-004  
  462.00  5.1270E-004  
  462.50  3.8725E-004  
  463.00  3.0044E-004  
  463.50  2.0077E-004  
  464.00  2.3401E-004  
  464.50  2.2099E-004  
  465.00  3.1442E-005  
  465.50  0.0000E+000  
  466.00  0.0000E+000  
  466.50  0.0000E+000  
  467.00  0.0000E+000  
  467.50  1.6194E-004  
  468.00  2.1599E-004  
  468.50  1.1817E-004  
  469.00  1.0060E-004  
  469.50  0.0000E+000  
  470.00  2.4515E-006  
  470.50  1.3309E-005  
  471.00  3.5859E-005  
  471.50  1.7561E-004  
  472.00  2.0951E-004  
  472.50  1.9522E-004  
  473.00  5.0539E-005  
  473.50  0.0000E+000  
  474.00  0.0000E+000  
  474.50  1.6147E-005  
  475.00  2.6298E-004  
  475.50  5.2644E-004  
  476.00  6.5835E-004  
  476.50  6.5191E-004  
  477.00  4.7375E-004  
  477.50  3.0027E-004  
  478.00  1.1960E-004  
  478.50  9.5159E-005  
  479.00  1.7164E-004  
  479.50  2.2616E-004  
  480.00  1.9610E-004  
  480.50  1.5811E-005  
  481.00  0.0000E+000  
  481.50  0.0000E+000  
  482.00  0.0000E+000  
  482.50  0.0000E+000  
  483.00  2.6577E-005  
  483.50  1.1820E-004  
  484.00  1.0587E-004  
  484.50  2.2985E-004  
  485.00  2.5539E-004  
  485.50  2.4052E-004  
  486.00  1.4746E-004  
  486.50  1.7111E-005  
  487.00  0.0000E+000  
  487.50  0.0000E+000  
  488.00  0.0000E+000  
  488.50  0.0000E+000  
  489.00  7.8453E-005  
  489.50  1.5439E-004  
  490.00  4.5899E-005  
  490.50  1.9120E-005  
  491.00  1.0678E-005  
  491.50  1.3398E-004  
  492.00  1.6981E-004  
  492.50  9.1665E-005  
  493.00  1.0855E-005  
  493.50  0.0000E+000  
  494.00  0.0000E+000  
  494.50  2.5475E-005  
  495.00  8.3072E-005  
  495.50  8.0456E-005  
  496.00  2.0419E-005  
  496.50  0.0000E+000  
  497.00  0.0000E+000  
  497.50  0.0000E+000  
  498.00  1.4008E-005  
  498.50  1.1234E-004  
  499.00  1.1670E-004  
  499.50  2.2349E-004  
  500.00  2.8038E-004  
  500.50  3.9857E-004  
  501.00  3.4327E-004  
  501.50  2.4746E-004  
  502.00  8.0061E-005  
  502.50  3.4008E-005  
  503.00  3.4781E-005  
  503.50  1.8146E-004  
  504.00  2.3418E-004  
  504.50  1.4753E-004  
  505.00  5.1469E-005  
  505.50  0.0000E+000  
  506.00  0.0000E+000  
  506.50  0.0000E+000  
  507.00  0.0000E+000  
  507.50  4.7783E-007  
  508.00  8.2257E-005  
  508.50  1.3506E-004  
  509.00  2.1849E-004  
  509.50  1.7807E-004  
  510.00  1.0809E-004  
  510.50  4.9365E-005  
  511.00  5.9118E-006  
  511.50  1.1191E-005  
  512.00  2.2482E-007  
  512.50  2.2842E-005  
  513.00  6.0796E-005  
  513.50  1.3954E-004  
  514.00  1.5172E-004  
  514.50  1.0587E-004  
  515.00  8.5215E-005  
  515.50  1.2954E-004  
  516.00  1.2574E-004  
  516.50  1.2331E-004  
  517.00  1.6478E-004  
  517.50  1.7566E-004  
  518.00  2.9314E-004  
  518.50  2.7531E-004  
  519.00  3.1795E-004  
  519.50  2.9060E-004  
  520.00  3.0307E-004  
  520.50  2.8481E-004  
  521.00  2.3696E-004  
  521.50  2.5945E-004  
  522.00  1.6346E-004  
  522.50  1.0561E-004  
  523.00  6.8239E-005  
  523.50  6.4791E-005  
  524.00  8.7176E-005  
  524.50  5.8730E-005  
  525.00  0.0000E+000  
  525.50  0.0000E+000  
  526.00  0.0000E+000  
  526.50  2.3887E-006  
  527.00  1.2184E-004  
  527.50  2.0775E-004  
  528.00  1.4112E-004  
  528.50  1.0345E-004  
  529.00  1.0488E-004  
  529.50  1.1750E-004  
  530.00  3.2655E-005  
  530.50  7.8184E-005  
  531.00  7.5484E-005  
  531.50  1.7879E-004  
  532.00  2.0011E-004  
  532.50  1.6750E-004  
  533.00  1.7248E-004  
  533.50  2.2924E-004  
  534.00  1.9811E-004  
  534.50  1.5377E-004  
  535.00  5.0143E-005  
  535.50  4.9895E-005  
  536.00  4.4676E-005  
  536.50  4.2369E-005  
  537.00  7.0345E-005  
  537.50  1.9399E-004  
  538.00  1.8875E-004  
  538.50  1.1648E-004  
  539.00  9.9854E-005  
  539.50  1.4191E-004  
  540.00  2.9050E-004  
  540.50  4.1655E-004  
  541.00  4.2997E-004  
  541.50  4.4986E-004  
  542.00  2.5242E-004  
  542.50  1.3792E-004  
  543.00  4.5263E-005  
  543.50  2.0657E-005  
  544.00  1.7598E-005  
  544.50  0.0000E+000  
  545.00  0.0000E+000  
  545.50  0.0000E+000  
  546.00  0.0000E+000  
  546.50  6.8752E-005  
  547.00  1.8291E-004  
  547.50  2.1299E-004  
  548.00  5.3404E-005  
  548.50  0.0000E+000  
  549.00  1.0365E-005  
  549.50  6.4432E-005  
  550.00  1.0509E-004  
  550.50  8.2959E-005  
  551.00  1.1334E-004  
  551.50  1.7522E-004  
  552.00  1.6586E-004  
  552.50  1.2647E-004  
  553.00  7.1838E-005  
  553.50  1.0032E-004  
  554.00  1.4180E-004  
  554.50  1.6145E-004  
  555.00  1.1559E-004  
  555.50  1.5228E-004  
  556.00  1.4335E-004  
  556.50  1.9872E-004  
  557.00  2.9572E-004  
  557.50  3.7077E-004  
  558.00  3.8605E-004  
  558.50  3.0602E-004  
  559.00  1.4833E-004  
  559.50  1.6892E-004  
  560.00  8.2831E-005  
  560.50  1.5020E-004  
  561.00  6.1023E-005  
  561.50  7.2536E-005  
  562.00  1.2538E-004  
  562.50  1.7929E-004  
  563.00  2.4449E-004  
  563.50  2.8917E-004  
  564.00  2.6990E-004  
  564.50  1.5428E-004  
  565.00  5.3244E-005  
  565.50  4.8650E-005  
  566.00  8.3711E-005  
  566.50  1.5536E-004  
  567.00  1.6297E-004  
  567.50  2.5423E-004  
  568.00  3.6987E-004  
  568.50  3.9313E-004  
  569.00  4.2854E-004  
  569.50  3.7613E-004  
  570.00  3.2618E-004  
  570.50  9.4575E-005  
  571.00  0.0000E+000  
  571.50  0.0000E+000  
  572.00  2.0121E-006  
  572.50  1.9477E-004  
  573.00  3.4554E-004  
  573.50  3.8142E-004  
  574.00  3.1255E-004  
  574.50  2.5465E-004  
  575.00  3.0915E-004  
  575.50  2.9610E-004  
  576.00  2.2319E-004  
  576.50  1.6322E-004  
  577.00  1.4948E-004  
  577.50  8.3784E-005  
  578.00  1.9276E-006  
  578.50  6.6974E-005  
  579.00  1.2800E-004  
  579.50  2.4844E-004  
  580.00  3.0965E-004  
  580.50  3.9766E-004  
  581.00  3.1404E-004  
  581.50  2.7720E-004  
  582.00  1.2781E-004  
  582.50  8.2699E-005  
  583.00  1.8191E-005  
  583.50  9.3898E-005  
  584.00  1.5848E-004  
  584.50  2.8062E-004  
  585.00  1.5615E-004  
  585.50  7.2252E-005  
  586.00  0.0000E+000  
  586.50  4.5322E-005  
  587.00  2.4697E-004  
  587.50  3.7808E-004  
  588.00  4.7836E-004  
  588.50  4.0961E-004  
  589.00  3.1880E-004  
  589.50  2.4173E-004  
  590.00  9.2727E-005  
  590.50  2.5805E-005  
  591.00  0.0000E+000  
  591.50  0.0000E+000  
  592.00  0.0000E+000  
  592.50  0.0000E+000  
  593.00  0.0000E+000  
  593.50  0.0000E+000  
  594.00  0.0000E+000  
  594.50  0.0000E+000  
  595.00  6.5585E-005  
  595.50  1.8078E-004  
  596.00  1.3281E-004  
  596.50  1.7881E-004  
  597.00  9.8871E-005  
  597.50  1.5552E-005  
  598.00  0.0000E+000  
  598.50  0.0000E+000  
  599.00  2.0857E-005  
  599.50  1.7722E-005  
  600.00  0.0000E+000  
  600.50  0.0000E+000  
  601.00  1.6979E-004  
  601.50  3.5152E-004  
  602.00  3.6368E-004  
  602.50  2.6697E-004  
  603.00  2.6120E-004  
  603.50  2.3927E-004  
  604.00  2.8132E-004  
  604.50  2.6199E-004  
  605.00  2.9566E-004  
  605.50  2.3449E-004  
  606.00  1.0061E-004  
  606.50  1.4595E-004  
  607.00  1.0509E-004  
  607.50  9.1753E-005  
  608.00  8.8005E-005  
  608.50  2.4029E-004  
  609.00  4.4487E-004  
  609.50  4.6563E-004  
  610.00  4.0640E-004  
  610.50  2.6913E-004  
  611.00  2.1949E-004  
  611.50  1.4914E-004  
  612.00  1.2970E-004  
  612.50  6.6940E-005  
  613.00  1.0344E-004  
  613.50  1.9060E-004  
  614.00  1.6460E-004  
  614.50  0.0000E+000  
  615.00  0.0000E+000  
  615.50  0.0000E+000  
  616.00  2.0012E-004  
  616.50  2.2690E-004  
  617.00  4.9888E-005  
  617.50  0.0000E+000  
  618.00  0.0000E+000  
  618.50  0.0000E+000  
  619.00  0.0000E+000  
  619.50  0.0000E+000  
  620.00  0.0000E+000  
  620.50  0.0000E+000  
  621.00  0.0000E+000  
  621.50  1.9768E-005  
  622.00  3.5835E-004  
  622.50  4.6065E-004  
  623.00  3.8509E-004  
  623.50  2.7626E-004  
  624.00  3.8576E-004  
  624.50  5.0936E-004  
  625.00  4.1814E-004  
  625.50  2.8699E-004  
  626.00  2.1465E-005  
  626.50  1.6022E-005  
  627.00  2.1106E-006  
  627.50  3.8716E-005  
  628.00  1.6034E-004  
  628.50  1.5093E-004  
  629.00  2.7681E-005  
  629.50  0.0000E+000  
  630.00  0.0000E+000  
  630.50  1.5444E-004  
  631.00  3.6990E-004  
  631.50  1.6902E-004  
  632.00  0.0000E+000  
  632.50  0.0000E+000  
  633.00  0.0000E+000  
  633.50  0.0000E+000  
  634.00  0.0000E+000  
  634.50  0.0000E+000  
  635.00  1.3897E-004  
  635.50  2.5801E-004  
  636.00  4.4381E-004  
  636.50  6.3141E-004  
  637.00  5.3520E-004  
  637.50  3.8019E-004  
  638.00  1.2389E-004  
  638.50  0.0000E+000  
  639.00  0.0000E+000  
  639.50  0.0000E+000  
  640.00  0.0000E+000  
  640.50  0.0000E+000  
  641.00  3.9543E-004  
  641.50  7.0733E-004  
  642.00  8.9715E-004  
  642.50  7.7468E-004  
  643.00  5.9400E-004  
  643.50  4.4058E-004  
  644.00  1.5506E-004  
  644.50  0.0000E+000  
  645.00  0.0000E+000  
  645.50  5.2305E-005  
  646.00  3.2011E-004  
  646.50  4.1488E-004  
  647.00  1.5804E-004  
  647.50  3.4288E-005  
  648.00  1.1620E-004  
  648.50  2.9822E-004  
  649.00  5.3561E-004  
  649.50  6.3016E-004  
  650.00  6.7347E-004  
  650.50  2.4303E-004  
  651.00  0.0000E+000  
  651.50  0.0000E+000  
  652.00  0.0000E+000  
  652.50  2.2143E-004  
  653.00  5.8597E-004  
  653.50  7.6054E-004  
  654.00  5.7310E-004  
  654.50  1.5882E-004  
  655.00  0.0000E+000  
  655.50  0.0000E+000  
  656.00  1.1381E-004  
  656.50  2.6333E-004  
  657.00  1.4327E-004  
  657.50  5.1914E-005  
  658.00  0.0000E+000  
  658.50  6.9224E-006  
  659.00  1.5449E-004  
  659.50  5.0617E-004  
  660.00  8.2040E-004  
  660.50  7.8285E-004  
  661.00  6.4495E-004  
  661.50  6.8936E-004  
  662.00  6.4893E-004  
  662.50  6.8710E-004  
  663.00  4.4656E-004  
  663.50  3.8371E-004  
  664.00  3.9562E-005  
  664.50  7.5902E-005  
  665.00  1.9124E-004  
  665.50  5.3969E-004  
  666.00  5.8895E-004  
  666.50  3.6971E-004  
  667.00  1.6843E-004  
  667.50  1.5160E-004  
  668.00  4.0017E-004  
  668.50  5.2300E-004  
  669.00  5.6431E-004  
  669.50  5.6593E-004  
  670.00  6.6555E-004  
  670.50  8.4769E-004  
  671.00  8.3943E-004  
  671.50  1.0684E-003  
  672.00  1.2432E-003  
  672.50  1.5181E-003  
  673.00  1.2259E-003  
  673.50  8.1957E-004  
  674.00  8.2257E-004  
  674.50  1.2559E-003  
  675.00  1.5880E-003  
  675.50  1.4676E-003  
  676.00  1.4682E-003  
  676.50  1.5671E-003  
  677.00  1.5824E-003  
  677.50  1.2338E-003  
  678.00  1.2403E-003  
  678.50  1.5401E-003  
  679.00  1.9699E-003  
  679.50  2.1723E-003  
  680.00  1.9748E-003  
  680.50  2.0298E-003  
  681.00  2.2697E-003  
  681.50  2.6672E-003  
  682.00  3.1381E-003  
  682.50  3.2296E-003  
  683.00  3.2311E-003  
  683.50  3.2403E-003  
  684.00  3.6124E-003  
  684.50  3.9893E-003  
  685.00  3.8867E-003  
  685.50  3.8309E-003  
  686.00  3.8494E-003  
  686.50  4.2676E-003  
  687.00  4.7175E-003  
  687.50  5.1420E-003  
  688.00  5.5123E-003  
  688.50  5.7760E-003  
  689.00  6.2830E-003  
  689.50  6.8211E-003  
  690.00  7.1202E-003  
  690.50  7.2584E-003  
  691.00  7.4936E-003  
  691.50  8.2520E-003  
  692.00  8.8161E-003  
  692.50  9.3263E-003  
  693.00  9.5772E-003  
  693.50  1.0052E-002  
  694.00  1.0475E-002  
  694.50  1.1012E-002  
  695.00  1.1592E-002  
  695.50  1.1940E-002  
  696.00  1.2436E-002  
  696.50  1.2990E-002  
  697.00  1.3687E-002  
  697.50  1.4369E-002  
  698.00  1.4886E-002  
  698.50  1.5472E-002  
  699.00  1.6049E-002  
  699.50  1.6778E-002  
  700.00  1.7306E-002  
  700.50  1.7916E-002  
  701.00  1.8816E-002  
  701.50  1.9766E-002  
  702.00  2.0191E-002  
  702.50  2.0879E-002  
  703.00  2.1689E-002  
  703.50  2.2530E-002  
  704.00  2.2881E-002  
  704.50  2.3438E-002  
  705.00  2.3992E-002  
  705.50  2.4566E-002  
  706.00  2.5454E-002  
  706.50  2.6217E-002  
  707.00  2.7254E-002  
  707.50  2.8053E-002  
  708.00  2.9043E-002  
  708.50  2.9573E-002  
  709.00  2.9992E-002  
  709.50  3.0702E-002  
  710.00  3.1578E-002  
  710.50  3.2440E-002  
  711.00  3.2970E-002  
  711.50  3.3341E-002  
  712.00  3.3761E-002  
  712.50  3.4242E-002  
  713.00  3.5200E-002  
  713.50  3.6621E-002  
  714.00  3.7894E-002  
  714.50  3.8581E-002  
  715.00  3.8903E-002  
  715.50  3.9715E-002  
  716.00  4.0620E-002  
  716.50  4.1445E-002  
  717.00  4.1876E-002  
  717.50  4.2392E-002  
  718.00  4.3289E-002  
  718.50  4.4485E-002  
  719.00  4.5430E-002  
  719.50  4.5887E-002  
  720.00  4.6913E-002  
  720.50  4.7708E-002  
  721.00  4.8316E-002  
  721.50  4.8502E-002  
  722.00  4.8991E-002  
  722.50  4.9416E-002  
  723.00  4.9923E-002  
  723.50  5.0190E-002  
  724.00  5.0988E-002  
  724.50  5.2360E-002  
  725.00  5.3767E-002  
  725.50  5.4666E-002  
  726.00  5.4371E-002  
  726.50  5.4543E-002  
  727.00  5.5079E-002  
  727.50  5.6191E-002  
  728.00  5.6999E-002  
  728.50  5.7783E-002  
  729.00  5.9195E-002  
  729.50  6.0302E-002  
  730.00  6.0971E-002  
  730.50  6.0922E-002  
  731.00  6.1096E-002  
  731.50  6.1567E-002  
  732.00  6.2597E-002  
  732.50  6.3638E-002  
  733.00  6.4702E-002  
  733.50  6.5718E-002  
  734.00  6.6512E-002  
  734.50  6.7253E-002  
  735.00  6.7742E-002  
  735.50  6.8397E-002  
  736.00  6.8468E-002  
  736.50  6.8602E-002  
  737.00  6.8708E-002  
  737.50  6.9671E-002  
  738.00  7.0832E-002  
  738.50  7.1741E-002  
  739.00  7.2269E-002  
  739.50  7.2679E-002  
  740.00  7.3032E-002  
  740.50  7.3742E-002  
  741.00  7.4644E-002  
  741.50  7.6063E-002  
  742.00  7.7034E-002  
  742.50  7.7596E-002  
  743.00  7.8015E-002  
  743.50  7.8479E-002  
  744.00  7.8629E-002  
  744.50  7.9434E-002  
  745.00  7.9727E-002  
  745.50  8.0389E-002  
  746.00  8.0454E-002  
  746.50  8.1086E-002  
  747.00  8.1397E-002  
  747.50  8.2283E-002  
  748.00  8.2920E-002  
  748.50  8.3529E-002  
  749.00  8.3086E-002  
  749.50  8.3572E-002  
  750.00  8.4602E-002  
  750.50  8.5785E-002  
  751.00  8.7149E-002  
  751.50  8.8535E-002  
  752.00  8.9491E-002  
  752.50  9.0395E-002  
  753.00  9.1075E-002  
  753.50  9.1088E-002  
  754.00  9.0647E-002  
  754.50  9.0639E-002  
  755.00  9.1629E-002  
  755.50  9.2860E-002  
  756.00  9.3666E-002  
  756.50  9.3232E-002  
  757.00  9.3282E-002  
  757.50  9.4137E-002  
  758.00  9.5279E-002  
  758.50  9.6514E-002  
  759.00  9.8163E-002  
  759.50  9.9462E-002  
  760.00  9.9405E-002  
  760.50  9.9014E-002  
  761.00  9.9620E-002  
  761.50  1.0090E-001  
  762.00  1.0174E-001  
  762.50  1.0179E-001  
  763.00  1.0125E-001  
  763.50  1.0170E-001  
  764.00  1.0250E-001  
  764.50  1.0367E-001  
  765.00  1.0444E-001  
  765.50  1.0478E-001  
  766.00  1.0541E-001  
  766.50  1.0691E-001  
  767.00  1.0854E-001  
  767.50  1.0870E-001  
  768.00  1.0824E-001  
  768.50  1.0788E-001  
  769.00  1.0864E-001  
  769.50  1.1049E-001  
  770.00  1.1197E-001  
  770.50  1.1291E-001  
  771.00  1.1337E-001  
  771.50  1.1416E-001  
  772.00  1.1449E-001  
  772.50  1.1514E-001  
  773.00  1.1611E-001  
  773.50  1.1756E-001  
  774.00  1.1818E-001  
  774.50  1.1789E-001  
  775.00  1.1757E-001  
  775.50  1.1752E-001  
  776.00  1.1764E-001  
  776.50  1.1835E-001  
  777.00  1.1974E-001  
  777.50  1.2056E-001  
  778.00  1.2110E-001  
  778.50  1.2215E-001  
  779.00  1.2380E-001  
  779.50  1.2434E-001  
  780.00  1.2428E-001  
  780.50  1.2483E-001  
  781.00  1.2600E-001  
  781.50  1.2664E-001  
  782.00  1.2755E-001  
  782.50  1.2824E-001  
  783.00  1.2916E-001  
  783.50  1.3072E-001  
  784.00  1.3164E-001  
  784.50  1.3150E-001  
  785.00  1.3088E-001  
  785.50  1.3068E-001  
  786.00  1.3124E-001  
  786.50  1.3316E-001  
  787.00  1.3562E-001  
  787.50  1.3668E-001  
  788.00  1.3603E-001  
  788.50  1.3716E-001  
  789.00  1.3864E-001  
  789.50  1.4008E-001  
  790.00  1.3967E-001  
  790.50  1.3931E-001  
  791.00  1.3910E-001  
  791.50  1.4055E-001  
  792.00  1.4276E-001  
  792.50  1.4386E-001  
  793.00  1.4512E-001  
  793.50  1.4512E-001  
  794.00  1.4503E-001  
  794.50  1.4436E-001  
  795.00  1.4519E-001  
  795.50  1.4669E-001  
  796.00  1.4812E-001  
  796.50  1.4951E-001  
  797.00  1.5055E-001  
  797.50  1.5177E-001  
  798.00  1.5184E-001  
  798.50  1.5246E-001  
  799.00  1.5169E-001  
  799.50  1.5210E-001  
  800.00  1.5257E-001  
  800.50  1.5533E-001  
  801.00  1.5682E-001  
  801.50  1.5729E-001  
  802.00  1.5701E-001  
  802.50  1.5684E-001  
  803.00  1.5687E-001  
  803.50  1.5739E-001  
  804.00  1.5710E-001  
  804.50  1.5718E-001  
  805.00  1.5645E-001  
  805.50  1.5772E-001  
  806.00  1.6032E-001  
  806.50  1.6348E-001  
  807.00  1.6477E-001  
  807.50  1.6566E-001  
  808.00  1.6564E-001  
  808.50  1.6497E-001  
  809.00  1.6433E-001  
  809.50  1.6515E-001  
  810.00  1.6703E-001  
  810.50  1.6842E-001  
  811.00  1.6859E-001  
  811.50  1.6969E-001  
  812.00  1.7100E-001  
  812.50  1.7167E-001  
  813.00  1.7137E-001  
  813.50  1.7066E-001  
  814.00  1.7173E-001  
  814.50  1.7477E-001  
  815.00  1.7749E-001  
  815.50  1.7711E-001  
  816.00  1.7542E-001  
  816.50  1.7534E-001  
  817.00  1.7773E-001  
  817.50  1.8017E-001  
  818.00  1.8076E-001  
  818.50  1.7968E-001  
  819.00  1.7832E-001  
  819.50  1.7770E-001  
  820.00  1.7996E-001  
  820.50  1.8141E-001  
  821.00  1.8273E-001  
  821.50  1.8409E-001  
  822.00  1.8414E-001  
  822.50  1.8216E-001  
  823.00  1.8262E-001  
  823.50  1.8528E-001  
  824.00  1.8766E-001  
  824.50  1.8868E-001  
  825.00  1.8921E-001  
  825.50  1.8968E-001  
  826.00  1.9079E-001  
  826.50  1.9148E-001  
  827.00  1.9085E-001  
  827.50  1.8980E-001  
  828.00  1.9095E-001  
  828.50  1.9289E-001  
  829.00  1.9420E-001  
  829.50  1.9437E-001  
  830.00  1.9633E-001  
  830.50  1.9826E-001  
  831.00  1.9822E-001  
  831.50  1.9927E-001  
  832.00  2.0007E-001  
  832.50  2.0195E-001  
  833.00  2.0233E-001  
  833.50  2.0162E-001  
  834.00  2.0134E-001  
  834.50  2.0331E-001  
  835.00  2.0567E-001  
  835.50  2.0532E-001  
  836.00  2.0508E-001  
  836.50  2.0507E-001  
  837.00  2.0474E-001  
  837.50  2.0359E-001  
  838.00  2.0331E-001  
  838.50  2.0543E-001  
  839.00  2.0741E-001  
  839.50  2.0923E-001  
  840.00  2.0931E-001  
  840.50  2.1017E-001  
  841.00  2.1198E-001  
  841.50  2.1273E-001  
  842.00  2.1398E-001  
  842.50  2.1357E-001  
  843.00  2.1356E-001  
  843.50  2.1275E-001  
  844.00  2.1345E-001  
  844.50  2.1400E-001  
  845.00  2.1542E-001  
  845.50  2.1517E-001  
  846.00  2.1520E-001  
  846.50  2.1692E-001  
  847.00  2.1599E-001  
  847.50  2.1558E-001  
  848.00  2.1923E-001  
  848.50  2.2093E-001  
  849.00  2.2023E-001  
  849.50  2.2169E-001  
  850.00  2.2337E-001  
  850.50  2.2442E-001  
  851.00  2.2398E-001  
  851.50  2.2548E-001  
  852.00  2.2529E-001  
  852.50  2.2390E-001  
  853.00  2.2564E-001  
  853.50  2.2718E-001  
  854.00  2.2826E-001  
  854.50  2.3021E-001  
  855.00  2.3185E-001  
  855.50  2.3038E-001  
  856.00  2.2716E-001  
  856.50  2.2676E-001  
  857.00  2.2941E-001  
  857.50  2.3205E-001  
  858.00  2.3509E-001  
  858.50  2.3505E-001  
  859.00  2.3473E-001  
  859.50  2.3395E-001  
  860.00  2.3530E-001  
  860.50  2.3311E-001  
  861.00  2.3429E-001  
  861.50  2.3603E-001  
  862.00  2.3906E-001  
  862.50  2.3982E-001  
  863.00  2.4137E-001  
  863.50  2.3905E-001  
  864.00  2.3824E-001  
  864.50  2.3918E-001  
  865.00  2.4103E-001  
  865.50  2.4260E-001  
  866.00  2.4392E-001  
  866.50  2.4326E-001  
  867.00  2.4282E-001  
  867.50  2.4573E-001  
  868.00  2.4698E-001  
  868.50  2.4563E-001  
  869.00  2.4314E-001  
  869.50  2.4372E-001  
  870.00  2.4438E-001  
  870.50  2.4383E-001  
  871.00  2.4282E-001  
  871.50  2.4369E-001  
  872.00  2.4782E-001  
  872.50  2.4968E-001  
  873.00  2.4976E-001  
  873.50  2.5183E-001  
  874.00  2.5256E-001  
  874.50  2.4848E-001  
  875.00  2.4907E-001  
  875.50  2.5269E-001  
  876.00  2.5269E-001  
  876.50  2.4906E-001  
  877.00  2.4914E-001  
  877.50  2.5173E-001  
  878.00  2.5266E-001  
  878.50  2.5326E-001  
  879.00  2.5652E-001  
  879.50  2.5855E-001  
  880.00  2.5726E-001  
  880.50  2.5656E-001  
  881.00  2.5851E-001  
  881.50  2.5687E-001  
  882.00  2.5299E-001  
  882.50  2.5247E-001  
  883.00  2.5607E-001  
  883.50  2.5884E-001  
  884.00  2.6162E-001  
  884.50  2.6500E-001  
  885.00  2.6775E-001  
  885.50  2.6262E-001  
  886.00  2.6002E-001  
  886.50  2.6155E-001  
  887.00  2.6332E-001  
  887.50  2.6340E-001  
  888.00  2.6276E-001  
  888.50  2.6277E-001  
  889.00  2.6632E-001  
  889.50  2.6751E-001  
  890.00  2.6696E-001  
  890.50  2.6811E-001  
  891.00  2.6587E-001  
  891.50  2.6359E-001  
  892.00  2.6838E-001  
  892.50  2.7294E-001  
  893.00  2.7153E-001  
  893.50  2.6973E-001  
  894.00  2.6574E-001  
  894.50  2.6419E-001  
  895.00  2.6593E-001  
  895.50  2.6865E-001  
  896.00  2.6571E-001  
  896.50  2.6638E-001  
  897.00  2.6742E-001  
  897.50  2.6999E-001  
  898.00  2.7426E-001  
  898.50  2.7340E-001  
  899.00  2.7392E-001  
  899.50  5.4844E-003  
