
# From lspdd.org
# 
# Name: DEL Greatwall-Ledlight A19 Domestique
# Indice spectral Valeur 
# MSI 0.14 
# SLI 0.32 
# IPI 0.64 
# Pourcentage de bleu 9.1 
# Caractéristique Valeur 
# CCT calculée (K) 2096 
# CCT du fabricant (K) 2200 
# Tension (V) 277 
# Puissance (W) 9.0 
# Efficacité lumineuse (Lum/W) ND 
#
# Image: '/app/system/img_1s/2752/medium_image1.JPG?1612236535'
# 

  273.00  0.0000E+000  
  273.50  0.0000E+000  
  274.00  0.0000E+000  
  274.50  0.0000E+000  
  275.00  0.0000E+000  
  275.50  0.0000E+000  
  276.00  0.0000E+000  
  276.50  0.0000E+000  
  277.00  0.0000E+000  
  277.50  0.0000E+000  
  278.00  0.0000E+000  
  278.50  0.0000E+000  
  279.00  0.0000E+000  
  279.50  0.0000E+000  
  280.00  0.0000E+000  
  280.50  0.0000E+000  
  281.00  0.0000E+000  
  281.50  0.0000E+000  
  282.00  0.0000E+000  
  282.50  0.0000E+000  
  283.00  0.0000E+000  
  283.50  0.0000E+000  
  284.00  0.0000E+000  
  284.50  0.0000E+000  
  285.00  0.0000E+000  
  285.50  0.0000E+000  
  286.00  0.0000E+000  
  286.50  0.0000E+000  
  287.00  0.0000E+000  
  287.50  0.0000E+000  
  288.00  0.0000E+000  
  288.50  0.0000E+000  
  289.00  0.0000E+000  
  289.50  0.0000E+000  
  290.00  0.0000E+000  
  290.50  0.0000E+000  
  291.00  0.0000E+000  
  291.50  0.0000E+000  
  292.00  0.0000E+000  
  292.50  0.0000E+000  
  293.00  0.0000E+000  
  293.50  0.0000E+000  
  294.00  0.0000E+000  
  294.50  0.0000E+000  
  295.00  0.0000E+000  
  295.50  0.0000E+000  
  296.00  0.0000E+000  
  296.50  0.0000E+000  
  297.00  0.0000E+000  
  297.50  0.0000E+000  
  298.00  0.0000E+000  
  298.50  0.0000E+000  
  299.00  0.0000E+000  
  299.50  0.0000E+000  
  300.00  0.0000E+000  
  300.50  0.0000E+000  
  301.00  0.0000E+000  
  301.50  0.0000E+000  
  302.00  0.0000E+000  
  302.50  0.0000E+000  
  303.00  0.0000E+000  
  303.50  0.0000E+000  
  304.00  0.0000E+000  
  304.50  8.1980E-005  
  305.00  3.4088E-005  
  305.50  3.8540E-005  
  306.00  0.0000E+000  
  306.50  0.0000E+000  
  307.00  0.0000E+000  
  307.50  0.0000E+000  
  308.00  0.0000E+000  
  308.50  0.0000E+000  
  309.00  0.0000E+000  
  309.50  0.0000E+000  
  310.00  0.0000E+000  
  310.50  0.0000E+000  
  311.00  2.4339E-005  
  311.50  2.2256E-004  
  312.00  2.3002E-004  
  312.50  5.4121E-004  
  313.00  7.6114E-004  
  313.50  6.3350E-004  
  314.00  5.9589E-004  
  314.50  3.8891E-004  
  315.00  1.6473E-004  
  315.50  2.3904E-004  
  316.00  3.2422E-004  
  316.50  1.6885E-004  
  317.00  1.1258E-004  
  317.50  0.0000E+000  
  318.00  0.0000E+000  
  318.50  0.0000E+000  
  319.00  1.0903E-004  
  319.50  3.5596E-004  
  320.00  2.6627E-004  
  320.50  3.2641E-004  
  321.00  6.8974E-005  
  321.50  1.0522E-004  
  322.00  2.9348E-004  
  322.50  4.3876E-004  
  323.00  6.2587E-004  
  323.50  5.1382E-004  
  324.00  3.0825E-004  
  324.50  1.7599E-004  
  325.00  2.2826E-004  
  325.50  2.2730E-004  
  326.00  2.2554E-004  
  326.50  2.2534E-004  
  327.00  1.8746E-004  
  327.50  2.7105E-004  
  328.00  3.1399E-004  
  328.50  0.0000E+000  
  329.00  0.0000E+000  
  329.50  0.0000E+000  
  330.00  1.5435E-005  
  330.50  2.0354E-004  
  331.00  1.4788E-004  
  331.50  0.0000E+000  
  332.00  0.0000E+000  
  332.50  0.0000E+000  
  333.00  0.0000E+000  
  333.50  0.0000E+000  
  334.00  0.0000E+000  
  334.50  3.3115E-006  
  335.00  2.5091E-004  
  335.50  4.0712E-004  
  336.00  4.7925E-004  
  336.50  4.0493E-004  
  337.00  3.6875E-004  
  337.50  3.1810E-004  
  338.00  1.3702E-004  
  338.50  2.8055E-005  
  339.00  3.3469E-007  
  339.50  0.0000E+000  
  340.00  6.4495E-006  
  340.50  3.5469E-007  
  341.00  5.4106E-005  
  341.50  1.4810E-006  
  342.00  0.0000E+000  
  342.50  0.0000E+000  
  343.00  5.1295E-005  
  343.50  4.2049E-004  
  344.00  6.2398E-004  
  344.50  6.8097E-004  
  345.00  4.5013E-004  
  345.50  2.7964E-004  
  346.00  2.3054E-004  
  346.50  3.7175E-004  
  347.00  7.3896E-004  
  347.50  8.9598E-004  
  348.00  7.4099E-004  
  348.50  4.5820E-004  
  349.00  1.7337E-004  
  349.50  1.2091E-004  
  350.00  1.2760E-004  
  350.50  1.4988E-004  
  351.00  2.2113E-004  
  351.50  1.2550E-004  
  352.00  1.6404E-004  
  352.50  2.2021E-004  
  353.00  2.5387E-004  
  353.50  3.3413E-004  
  354.00  6.3330E-005  
  354.50  0.0000E+000  
  355.00  0.0000E+000  
  355.50  0.0000E+000  
  356.00  0.0000E+000  
  356.50  0.0000E+000  
  357.00  0.0000E+000  
  357.50  0.0000E+000  
  358.00  0.0000E+000  
  358.50  1.5851E-006  
  359.00  6.3123E-006  
  359.50  0.0000E+000  
  360.00  0.0000E+000  
  360.50  7.5678E-005  
  361.00  3.5831E-004  
  361.50  4.7266E-004  
  362.00  4.9045E-004  
  362.50  5.7251E-004  
  363.00  4.4401E-004  
  363.50  1.7136E-004  
  364.00  4.0089E-006  
  364.50  0.0000E+000  
  365.00  1.9253E-005  
  365.50  1.9877E-004  
  366.00  3.5715E-004  
  366.50  1.2921E-004  
  367.00  0.0000E+000  
  367.50  0.0000E+000  
  368.00  4.4112E-005  
  368.50  3.0865E-004  
  369.00  4.1591E-004  
  369.50  3.3997E-004  
  370.00  2.6714E-004  
  370.50  1.3207E-004  
  371.00  9.7727E-005  
  371.50  1.7453E-005  
  372.00  1.4232E-004  
  372.50  1.9719E-004  
  373.00  2.1754E-004  
  373.50  2.0538E-004  
  374.00  1.2124E-004  
  374.50  6.1469E-006  
  375.00  0.0000E+000  
  375.50  5.5665E-006  
  376.00  7.7981E-005  
  376.50  1.7703E-004  
  377.00  1.7023E-004  
  377.50  1.7286E-004  
  378.00  3.6519E-004  
  378.50  3.4334E-004  
  379.00  1.8905E-004  
  379.50  9.5306E-005  
  380.00  0.0000E+000  
  380.50  0.0000E+000  
  381.00  4.9354E-005  
  381.50  7.5874E-005  
  382.00  2.2784E-004  
  382.50  4.5795E-005  
  383.00  7.9574E-006  
  383.50  0.0000E+000  
  384.00  0.0000E+000  
  384.50  0.0000E+000  
  385.00  0.0000E+000  
  385.50  0.0000E+000  
  386.00  0.0000E+000  
  386.50  0.0000E+000  
  387.00  0.0000E+000  
  387.50  0.0000E+000  
  388.00  0.0000E+000  
  388.50  0.0000E+000  
  389.00  0.0000E+000  
  389.50  0.0000E+000  
  390.00  3.4608E-006  
  390.50  0.0000E+000  
  391.00  0.0000E+000  
  391.50  0.0000E+000  
  392.00  0.0000E+000  
  392.50  0.0000E+000  
  393.00  0.0000E+000  
  393.50  4.2798E-005  
  394.00  2.0291E-004  
  394.50  1.9689E-004  
  395.00  2.7333E-004  
  395.50  2.9644E-004  
  396.00  3.7498E-004  
  396.50  4.2154E-004  
  397.00  4.0258E-004  
  397.50  4.1622E-004  
  398.00  2.3094E-004  
  398.50  8.0676E-005  
  399.00  7.2861E-005  
  399.50  0.0000E+000  
  400.00  0.0000E+000  
  400.50  0.0000E+000  
  401.00  0.0000E+000  
  401.50  0.0000E+000  
  402.00  0.0000E+000  
  402.50  7.7048E-006  
  403.00  3.1274E-004  
  403.50  5.8636E-004  
  404.00  6.1889E-004  
  404.50  5.2634E-004  
  405.00  1.9160E-004  
  405.50  0.0000E+000  
  406.00  0.0000E+000  
  406.50  0.0000E+000  
  407.00  0.0000E+000  
  407.50  2.4825E-005  
  408.00  9.1611E-005  
  408.50  1.1915E-004  
  409.00  4.2352E-005  
  409.50  9.4601E-005  
  410.00  2.2873E-004  
  410.50  4.5600E-004  
  411.00  5.1407E-004  
  411.50  5.0544E-004  
  412.00  5.2809E-004  
  412.50  3.3115E-004  
  413.00  9.9397E-005  
  413.50  0.0000E+000  
  414.00  0.0000E+000  
  414.50  0.0000E+000  
  415.00  2.0009E-004  
  415.50  3.6347E-004  
  416.00  2.4542E-004  
  416.50  2.2770E-004  
  417.00  1.9001E-004  
  417.50  2.9668E-004  
  418.00  4.4317E-004  
  418.50  5.1143E-004  
  419.00  5.4151E-004  
  419.50  4.8879E-004  
  420.00  3.7846E-004  
  420.50  4.0985E-004  
  421.00  6.1432E-004  
  421.50  7.6479E-004  
  422.00  9.5635E-004  
  422.50  9.8177E-004  
  423.00  9.3901E-004  
  423.50  8.4666E-004  
  424.00  8.6649E-004  
  424.50  8.1816E-004  
  425.00  9.4516E-004  
  425.50  1.0857E-003  
  426.00  1.0574E-003  
  426.50  1.2476E-003  
  427.00  1.2713E-003  
  427.50  1.2423E-003  
  428.00  1.3834E-003  
  428.50  1.5060E-003  
  429.00  1.6897E-003  
  429.50  1.8735E-003  
  430.00  1.8933E-003  
  430.50  1.8580E-003  
  431.00  1.8214E-003  
  431.50  1.8296E-003  
  432.00  1.7875E-003  
  432.50  1.9059E-003  
  433.00  1.9971E-003  
  433.50  2.2346E-003  
  434.00  2.6537E-003  
  434.50  2.7847E-003  
  435.00  3.0617E-003  
  435.50  3.1768E-003  
  436.00  3.2620E-003  
  436.50  3.2163E-003  
  437.00  3.1692E-003  
  437.50  3.2711E-003  
  438.00  3.4465E-003  
  438.50  3.6150E-003  
  439.00  3.8556E-003  
  439.50  4.0906E-003  
  440.00  4.3621E-003  
  440.50  4.8513E-003  
  441.00  5.0698E-003  
  441.50  5.3072E-003  
  442.00  5.5545E-003  
  442.50  5.8113E-003  
  443.00  6.2742E-003  
  443.50  6.6215E-003  
  444.00  6.8040E-003  
  444.50  6.9280E-003  
  445.00  7.0934E-003  
  445.50  7.5954E-003  
  446.00  8.0932E-003  
  446.50  8.7002E-003  
  447.00  9.1271E-003  
  447.50  9.5009E-003  
  448.00  9.4818E-003  
  448.50  9.5344E-003  
  449.00  9.7692E-003  
  449.50  1.0107E-002  
  450.00  1.0419E-002  
  450.50  1.0238E-002  
  451.00  9.8998E-003  
  451.50  9.7984E-003  
  452.00  9.8515E-003  
  452.50  9.9016E-003  
  453.00  9.8816E-003  
  453.50  9.5611E-003  
  454.00  9.0907E-003  
  454.50  8.7242E-003  
  455.00  8.7288E-003  
  455.50  8.8040E-003  
  456.00  8.8049E-003  
  456.50  8.5668E-003  
  457.00  8.0243E-003  
  457.50  7.6074E-003  
  458.00  7.2068E-003  
  458.50  7.2017E-003  
  459.00  7.2433E-003  
  459.50  6.9942E-003  
  460.00  6.5181E-003  
  460.50  6.2181E-003  
  461.00  6.2296E-003  
  461.50  6.5121E-003  
  462.00  6.8730E-003  
  462.50  7.0831E-003  
  463.00  7.1031E-003  
  463.50  6.9034E-003  
  464.00  6.4618E-003  
  464.50  6.2882E-003  
  465.00  6.3285E-003  
  465.50  6.3212E-003  
  466.00  6.3238E-003  
  466.50  6.1164E-003  
  467.00  6.0856E-003  
  467.50  6.1571E-003  
  468.00  6.1708E-003  
  468.50  6.1366E-003  
  469.00  6.1931E-003  
  469.50  6.3125E-003  
  470.00  6.3421E-003  
  470.50  6.2976E-003  
  471.00  6.0933E-003  
  471.50  5.8419E-003  
  472.00  5.5539E-003  
  472.50  5.4484E-003  
  473.00  5.3782E-003  
  473.50  5.4447E-003  
  474.00  5.3991E-003  
  474.50  5.2609E-003  
  475.00  5.2469E-003  
  475.50  5.1709E-003  
  476.00  5.2825E-003  
  476.50  5.2082E-003  
  477.00  5.3369E-003  
  477.50  5.4715E-003  
  478.00  5.4427E-003  
  478.50  5.4154E-003  
  479.00  5.2703E-003  
  479.50  5.2585E-003  
  480.00  5.2825E-003  
  480.50  5.2977E-003  
  481.00  5.2404E-003  
  481.50  5.4352E-003  
  482.00  5.7093E-003  
  482.50  5.8949E-003  
  483.00  6.0497E-003  
  483.50  5.9639E-003  
  484.00  6.0620E-003  
  484.50  6.1394E-003  
  485.00  6.2419E-003  
  485.50  6.2079E-003  
  486.00  6.1924E-003  
  486.50  6.2963E-003  
  487.00  6.5880E-003  
  487.50  6.8840E-003  
  488.00  7.1343E-003  
  488.50  7.3297E-003  
  489.00  7.2428E-003  
  489.50  7.1224E-003  
  490.00  7.0933E-003  
  490.50  7.2014E-003  
  491.00  7.6165E-003  
  491.50  7.9306E-003  
  492.00  8.0506E-003  
  492.50  8.0954E-003  
  493.00  8.1806E-003  
  493.50  8.3412E-003  
  494.00  8.5855E-003  
  494.50  8.8168E-003  
  495.00  8.9756E-003  
  495.50  9.1691E-003  
  496.00  9.3878E-003  
  496.50  9.6746E-003  
  497.00  9.9516E-003  
  497.50  1.0176E-002  
  498.00  1.0451E-002  
  498.50  1.0736E-002  
  499.00  1.0970E-002  
  499.50  1.1122E-002  
  500.00  1.1169E-002  
  500.50  1.1247E-002  
  501.00  1.1308E-002  
  501.50  1.1546E-002  
  502.00  1.1771E-002  
  502.50  1.2136E-002  
  503.00  1.2461E-002  
  503.50  1.2807E-002  
  504.00  1.3088E-002  
  504.50  1.3292E-002  
  505.00  1.3423E-002  
  505.50  1.3602E-002  
  506.00  1.3720E-002  
  506.50  1.3799E-002  
  507.00  1.3953E-002  
  507.50  1.4233E-002  
  508.00  1.4514E-002  
  508.50  1.4770E-002  
  509.00  1.4822E-002  
  509.50  1.4850E-002  
  510.00  1.4997E-002  
  510.50  1.5234E-002  
  511.00  1.5413E-002  
  511.50  1.5660E-002  
  512.00  1.5823E-002  
  512.50  1.6131E-002  
  513.00  1.6450E-002  
  513.50  1.6561E-002  
  514.00  1.6667E-002  
  514.50  1.6930E-002  
  515.00  1.7257E-002  
  515.50  1.7634E-002  
  516.00  1.7709E-002  
  516.50  1.7691E-002  
  517.00  1.7700E-002  
  517.50  1.7822E-002  
  518.00  1.7991E-002  
  518.50  1.8171E-002  
  519.00  1.8289E-002  
  519.50  1.8386E-002  
  520.00  1.8559E-002  
  520.50  1.8869E-002  
  521.00  1.9126E-002  
  521.50  1.9346E-002  
  522.00  1.9387E-002  
  522.50  1.9431E-002  
  523.00  1.9733E-002  
  523.50  2.0151E-002  
  524.00  2.0462E-002  
  524.50  2.0613E-002  
  525.00  2.0580E-002  
  525.50  2.0708E-002  
  526.00  2.0910E-002  
  526.50  2.1177E-002  
  527.00  2.1400E-002  
  527.50  2.1572E-002  
  528.00  2.1795E-002  
  528.50  2.1975E-002  
  529.00  2.2191E-002  
  529.50  2.2307E-002  
  530.00  2.2509E-002  
  530.50  2.2840E-002  
  531.00  2.3232E-002  
  531.50  2.3578E-002  
  532.00  2.3810E-002  
  532.50  2.4010E-002  
  533.00  2.4218E-002  
  533.50  2.4479E-002  
  534.00  2.4785E-002  
  534.50  2.5006E-002  
  535.00  2.5113E-002  
  535.50  2.5249E-002  
  536.00  2.5387E-002  
  536.50  2.5789E-002  
  537.00  2.6198E-002  
  537.50  2.6599E-002  
  538.00  2.6972E-002  
  538.50  2.7226E-002  
  539.00  2.7580E-002  
  539.50  2.7845E-002  
  540.00  2.8241E-002  
  540.50  2.8591E-002  
  541.00  2.8916E-002  
  541.50  2.9191E-002  
  542.00  2.9431E-002  
  542.50  2.9638E-002  
  543.00  2.9963E-002  
  543.50  3.0384E-002  
  544.00  3.0790E-002  
  544.50  3.1282E-002  
  545.00  3.1730E-002  
  545.50  3.2137E-002  
  546.00  3.2397E-002  
  546.50  3.2679E-002  
  547.00  3.3039E-002  
  547.50  3.3445E-002  
  548.00  3.3774E-002  
  548.50  3.4111E-002  
  549.00  3.4684E-002  
  549.50  3.5240E-002  
  550.00  3.5755E-002  
  550.50  3.6165E-002  
  551.00  3.6763E-002  
  551.50  3.7354E-002  
  552.00  3.7898E-002  
  552.50  3.8262E-002  
  553.00  3.8545E-002  
  553.50  3.8901E-002  
  554.00  3.9434E-002  
  554.50  4.0222E-002  
  555.00  4.0702E-002  
  555.50  4.1214E-002  
  556.00  4.1506E-002  
  556.50  4.1966E-002  
  557.00  4.2615E-002  
  557.50  4.3300E-002  
  558.00  4.4083E-002  
  558.50  4.4748E-002  
  559.00  4.5293E-002  
  559.50  4.6046E-002  
  560.00  4.6882E-002  
  560.50  4.7696E-002  
  561.00  4.8289E-002  
  561.50  4.8928E-002  
  562.00  4.9344E-002  
  562.50  5.0115E-002  
  563.00  5.0700E-002  
  563.50  5.1552E-002  
  564.00  5.2288E-002  
  564.50  5.3111E-002  
  565.00  5.3718E-002  
  565.50  5.4153E-002  
  566.00  5.4535E-002  
  566.50  5.5243E-002  
  567.00  5.6225E-002  
  567.50  5.7250E-002  
  568.00  5.8217E-002  
  568.50  5.9029E-002  
  569.00  5.9825E-002  
  569.50  6.0368E-002  
  570.00  6.1033E-002  
  570.50  6.1675E-002  
  571.00  6.2454E-002  
  571.50  6.3286E-002  
  572.00  6.4129E-002  
  572.50  6.5046E-002  
  573.00  6.6026E-002  
  573.50  6.7012E-002  
  574.00  6.7653E-002  
  574.50  6.8336E-002  
  575.00  6.9145E-002  
  575.50  7.0240E-002  
  576.00  7.1205E-002  
  576.50  7.1879E-002  
  577.00  7.2405E-002  
  577.50  7.3112E-002  
  578.00  7.3899E-002  
  578.50  7.5016E-002  
  579.00  7.5899E-002  
  579.50  7.6658E-002  
  580.00  7.7120E-002  
  580.50  7.7816E-002  
  581.00  7.8734E-002  
  581.50  7.9649E-002  
  582.00  8.0309E-002  
  582.50  8.0568E-002  
  583.00  8.1026E-002  
  583.50  8.1738E-002  
  584.00  8.2609E-002  
  584.50  8.3497E-002  
  585.00  8.4376E-002  
  585.50  8.5096E-002  
  586.00  8.5984E-002  
  586.50  8.6280E-002  
  587.00  8.6831E-002  
  587.50  8.7391E-002  
  588.00  8.7928E-002  
  588.50  8.8465E-002  
  589.00  8.8775E-002  
  589.50  8.9063E-002  
  590.00  8.9325E-002  
  590.50  8.9915E-002  
  591.00  9.0610E-002  
  591.50  9.1798E-002  
  592.00  9.2822E-002  
  592.50  9.3684E-002  
  593.00  9.4318E-002  
  593.50  9.4809E-002  
  594.00  9.5185E-002  
  594.50  9.5612E-002  
  595.00  9.5477E-002  
  595.50  9.5586E-002  
  596.00  9.5824E-002  
  596.50  9.6035E-002  
  597.00  9.6542E-002  
  597.50  9.6618E-002  
  598.00  9.6747E-002  
  598.50  9.6766E-002  
  599.00  9.6924E-002  
  599.50  9.7055E-002  
  600.00  9.7308E-002  
  600.50  9.7517E-002  
  601.00  9.7999E-002  
  601.50  9.8225E-002  
  602.00  9.8431E-002  
  602.50  9.8499E-002  
  603.00  9.8346E-002  
  603.50  9.8097E-002  
  604.00  9.7859E-002  
  604.50  9.8093E-002  
  605.00  9.8334E-002  
  605.50  9.8646E-002  
  606.00  9.8865E-002  
  606.50  9.8889E-002  
  607.00  9.8613E-002  
  607.50  9.8433E-002  
  608.00  9.8514E-002  
  608.50  9.8612E-002  
  609.00  9.8454E-002  
  609.50  9.7951E-002  
  610.00  9.7686E-002  
  610.50  9.7513E-002  
  611.00  9.7479E-002  
  611.50  9.7547E-002  
  612.00  9.7511E-002  
  612.50  9.7286E-002  
  613.00  9.6866E-002  
  613.50  9.6549E-002  
  614.00  9.6639E-002  
  614.50  9.6537E-002  
  615.00  9.6273E-002  
  615.50  9.5610E-002  
  616.00  9.4978E-002  
  616.50  9.4548E-002  
  617.00  9.4185E-002  
  617.50  9.4158E-002  
  618.00  9.3509E-002  
  618.50  9.2836E-002  
  619.00  9.2152E-002  
  619.50  9.1787E-002  
  620.00  9.1450E-002  
  620.50  9.1098E-002  
  621.00  9.0801E-002  
  621.50  9.0456E-002  
  622.00  8.9640E-002  
  622.50  8.8925E-002  
  623.00  8.8376E-002  
  623.50  8.7864E-002  
  624.00  8.7083E-002  
  624.50  8.6103E-002  
  625.00  8.5537E-002  
  625.50  8.4935E-002  
  626.00  8.4327E-002  
  626.50  8.3824E-002  
  627.00  8.3467E-002  
  627.50  8.3225E-002  
  628.00  8.2557E-002  
  628.50  8.1980E-002  
  629.00  8.1439E-002  
  629.50  8.1066E-002  
  630.00  8.0395E-002  
  630.50  7.9287E-002  
  631.00  7.8391E-002  
  631.50  7.7847E-002  
  632.00  7.7599E-002  
  632.50  7.7072E-002  
  633.00  7.6553E-002  
  633.50  7.5888E-002  
  634.00  7.5450E-002  
  634.50  7.4533E-002  
  635.00  7.3815E-002  
  635.50  7.2827E-002  
  636.00  7.2173E-002  
  636.50  7.1584E-002  
  637.00  7.0933E-002  
  637.50  7.0188E-002  
  638.00  6.9462E-002  
  638.50  6.8999E-002  
  639.00  6.8201E-002  
  639.50  6.7303E-002  
  640.00  6.6530E-002  
  640.50  6.6050E-002  
  641.00  6.5600E-002  
  641.50  6.5191E-002  
  642.00  6.4693E-002  
  642.50  6.4091E-002  
  643.00  6.3208E-002  
  643.50  6.2414E-002  
  644.00  6.1776E-002  
  644.50  6.1148E-002  
  645.00  6.0193E-002  
  645.50  5.9289E-002  
  646.00  5.8489E-002  
  646.50  5.8174E-002  
  647.00  5.7978E-002  
  647.50  5.7452E-002  
  648.00  5.6932E-002  
  648.50  5.6129E-002  
  649.00  5.5620E-002  
  649.50  5.4739E-002  
  650.00  5.4025E-002  
  650.50  5.3449E-002  
  651.00  5.2948E-002  
  651.50  5.2362E-002  
  652.00  5.1878E-002  
  652.50  5.1336E-002  
  653.00  5.0669E-002  
  653.50  4.9776E-002  
  654.00  4.9208E-002  
  654.50  4.8727E-002  
  655.00  4.8137E-002  
  655.50  4.7191E-002  
  656.00  4.6160E-002  
  656.50  4.5536E-002  
  657.00  4.5416E-002  
  657.50  4.5374E-002  
  658.00  4.4965E-002  
  658.50  4.4225E-002  
  659.00  4.3709E-002  
  659.50  4.3054E-002  
  660.00  4.2542E-002  
  660.50  4.2053E-002  
  661.00  4.1639E-002  
  661.50  4.1081E-002  
  662.00  4.0227E-002  
  662.50  3.9428E-002  
  663.00  3.8769E-002  
  663.50  3.8121E-002  
  664.00  3.7467E-002  
  664.50  3.6999E-002  
  665.00  3.6659E-002  
  665.50  3.6340E-002  
  666.00  3.5601E-002  
  666.50  3.5010E-002  
  667.00  3.4273E-002  
  667.50  3.3613E-002  
  668.00  3.3048E-002  
  668.50  3.2990E-002  
  669.00  3.2780E-002  
  669.50  3.2239E-002  
  670.00  3.1301E-002  
  670.50  3.0945E-002  
  671.00  3.0730E-002  
  671.50  3.0449E-002  
  672.00  2.9820E-002  
  672.50  2.9168E-002  
  673.00  2.8723E-002  
  673.50  2.8544E-002  
  674.00  2.8132E-002  
  674.50  2.7544E-002  
  675.00  2.6708E-002  
  675.50  2.6206E-002  
  676.00  2.6171E-002  
  676.50  2.6073E-002  
  677.00  2.5905E-002  
  677.50  2.5340E-002  
  678.00  2.4834E-002  
  678.50  2.4382E-002  
  679.00  2.4194E-002  
  679.50  2.3944E-002  
  680.00  2.3538E-002  
  680.50  2.3219E-002  
  681.00  2.2752E-002  
  681.50  2.2116E-002  
  682.00  2.1632E-002  
  682.50  2.1326E-002  
  683.00  2.1178E-002  
  683.50  2.0734E-002  
  684.00  2.0652E-002  
  684.50  2.0735E-002  
  685.00  2.0839E-002  
  685.50  2.0376E-002  
  686.00  1.9845E-002  
  686.50  1.9044E-002  
  687.00  1.8708E-002  
  687.50  1.8257E-002  
  688.00  1.7929E-002  
  688.50  1.7490E-002  
  689.00  1.7110E-002  
  689.50  1.6801E-002  
  690.00  1.6760E-002  
  690.50  1.6798E-002  
  691.00  1.6691E-002  
  691.50  1.6206E-002  
  692.00  1.5878E-002  
  692.50  1.5539E-002  
  693.00  1.5323E-002  
  693.50  1.4553E-002  
  694.00  1.4551E-002  
  694.50  1.4582E-002  
  695.00  1.4680E-002  
  695.50  1.4168E-002  
  696.00  1.3918E-002  
  696.50  1.3783E-002  
  697.00  1.3764E-002  
  697.50  1.3635E-002  
  698.00  1.3527E-002  
  698.50  1.3124E-002  
  699.00  1.2730E-002  
  699.50  1.2476E-002  
  700.00  1.2150E-002  
  700.50  1.1917E-002  
  701.00  1.1597E-002  
  701.50  1.1572E-002  
  702.00  1.1388E-002  
  702.50  1.1375E-002  
  703.00  1.1120E-002  
  703.50  1.1153E-002  
  704.00  1.1314E-002  
  704.50  1.1498E-002  
  705.00  1.0864E-002  
  705.50  1.0133E-002  
  706.00  9.4642E-003  
  706.50  9.5157E-003  
  707.00  9.5149E-003  
  707.50  9.8398E-003  
  708.00  1.0016E-002  
  708.50  9.9030E-003  
  709.00  9.3125E-003  
  709.50  8.8171E-003  
  710.00  8.7288E-003  
  710.50  8.8478E-003  
  711.00  8.6654E-003  
  711.50  8.5808E-003  
  712.00  8.6404E-003  
  712.50  8.6588E-003  
  713.00  8.3244E-003  
  713.50  8.1278E-003  
  714.00  7.9544E-003  
  714.50  7.5294E-003  
  715.00  7.3369E-003  
  715.50  7.4685E-003  
  716.00  7.7114E-003  
  716.50  7.3816E-003  
  717.00  7.1816E-003  
  717.50  6.9538E-003  
  718.00  6.8565E-003  
  718.50  6.5438E-003  
  719.00  6.6035E-003  
  719.50  6.0607E-003  
  720.00  5.6826E-003  
  720.50  5.8075E-003  
  721.00  6.3514E-003  
  721.50  6.6351E-003  
  722.00  6.0116E-003  
  722.50  5.8804E-003  
  723.00  5.8409E-003  
  723.50  6.1243E-003  
  724.00  6.3942E-003  
  724.50  6.6399E-003  
  725.00  6.6371E-003  
  725.50  6.1009E-003  
  726.00  5.7262E-003  
  726.50  5.3616E-003  
  727.00  5.1889E-003  
  727.50  4.9862E-003  
  728.00  4.7463E-003  
  728.50  4.9395E-003  
  729.00  5.3133E-003  
  729.50  5.2143E-003  
  730.00  5.0588E-003  
  730.50  5.0231E-003  
  731.00  5.0557E-003  
  731.50  5.0191E-003  
  732.00  4.8295E-003  
  732.50  4.5009E-003  
  733.00  4.1541E-003  
  733.50  3.9935E-003  
  734.00  3.8829E-003  
  734.50  3.7539E-003  
  735.00  3.6099E-003  
  735.50  3.6271E-003  
  736.00  3.4883E-003  
  736.50  3.7602E-003  
  737.00  3.8076E-003  
  737.50  3.7712E-003  
  738.00  3.2875E-003  
  738.50  2.7364E-003  
  739.00  2.9201E-003  
  739.50  3.2331E-003  
  740.00  3.3832E-003  
  740.50  3.1828E-003  
  741.00  3.4743E-003  
  741.50  3.9078E-003  
  742.00  4.0123E-003  
  742.50  3.7494E-003  
  743.00  3.6583E-003  
  743.50  3.6353E-003  
  744.00  3.2786E-003  
  744.50  2.8259E-003  
  745.00  2.9567E-003  
  745.50  3.1314E-003  
  746.00  2.8779E-003  
  746.50  2.4540E-003  
  747.00  1.8220E-003  
  747.50  1.8181E-003  
  748.00  2.1058E-003  
  748.50  2.5349E-003  
  749.00  2.8077E-003  
  749.50  2.9429E-003  
  750.00  3.3773E-003  
  750.50  3.4251E-003  
  751.00  3.4799E-003  
  751.50  3.0060E-003  
  752.00  2.4601E-003  
  752.50  2.0531E-003  
  753.00  1.8278E-003  
  753.50  2.1570E-003  
  754.00  1.9766E-003  
  754.50  1.6439E-003  
  755.00  1.1077E-003  
  755.50  1.4058E-003  
  756.00  2.2680E-003  
  756.50  2.4476E-003  
  757.00  2.2243E-003  
  757.50  2.1641E-003  
  758.00  2.2960E-003  
  758.50  2.1337E-003  
  759.00  1.5564E-003  
  759.50  1.6273E-003  
  760.00  2.2432E-003  
  760.50  2.7839E-003  
  761.00  2.3259E-003  
  761.50  1.7526E-003  
  762.00  1.4540E-003  
  762.50  1.7277E-003  
  763.00  1.7878E-003  
  763.50  2.1113E-003  
  764.00  2.4505E-003  
  764.50  2.4778E-003  
  765.00  2.0644E-003  
  765.50  1.7190E-003  
  766.00  1.3172E-003  
  766.50  1.3117E-003  
  767.00  1.2878E-003  
  767.50  1.5698E-003  
  768.00  1.5197E-003  
  768.50  1.9579E-003  
  769.00  1.9506E-003  
  769.50  1.5983E-003  
  770.00  1.0427E-003  
  770.50  1.6839E-003  
  771.00  1.9473E-003  
  771.50  1.4731E-003  
  772.00  4.9349E-004  
  772.50  5.3471E-004  
  773.00  1.3797E-003  
  773.50  1.9015E-003  
  774.00  2.3755E-003  
  774.50  2.7509E-003  
  775.00  2.6282E-003  
  775.50  1.9593E-003  
  776.00  1.7467E-003  
  776.50  1.8823E-003  
  777.00  2.0538E-003  
  777.50  1.8151E-003  
  778.00  1.0547E-003  
  778.50  3.7586E-005  
  779.00  0.0000E+000  
  779.50  1.5984E-004  
  780.00  1.0926E-003  
  780.50  1.6285E-003  
  781.00  1.7559E-003  
  781.50  1.5955E-003  
  782.00  1.0223E-003  
  782.50  1.4453E-004  
  783.00  1.1237E-006  
  783.50  0.0000E+000  
  784.00  4.0044E-004  
  784.50  8.1494E-004  
  785.00  1.2850E-003  
  785.50  1.3637E-003  
  786.00  1.3773E-003  
  786.50  7.8705E-004  
  787.00  4.9167E-004  
  787.50  6.0544E-004  
  788.00  7.0801E-004  
  788.50  1.2121E-004  
  789.00  0.0000E+000  
  789.50  0.0000E+000  
  790.00  5.7573E-004  
  790.50  5.6898E-004  
  791.00  8.5484E-004  
  791.50  1.1882E-003  
  792.00  1.5558E-003  
  792.50  9.5543E-004  
  793.00  4.5546E-004  
  793.50  3.9876E-004  
  794.00  7.3157E-004  
  794.50  1.0910E-003  
  795.00  1.3830E-003  
  795.50  1.1271E-003  
  796.00  8.9219E-004  
  796.50  1.1416E-003  
  797.00  8.2160E-004  
  797.50  1.4832E-005  
  798.00  1.6622E-004  
  798.50  1.3062E-003  
  799.00  1.2452E-003  
  799.50  1.1214E-003  
  800.00  1.2013E-003  
  800.50  1.5528E-003  
  801.00  9.7602E-004  
  801.50  6.5098E-004  
  802.00  5.2641E-004  
  802.50  4.5117E-004  
  803.00  2.4928E-004  
  803.50  0.0000E+000  
  804.00  0.0000E+000  
  804.50  0.0000E+000  
  805.00  1.6671E-004  
  805.50  7.4306E-004  
  806.00  1.3347E-003  
  806.50  8.3285E-004  
  807.00  4.5105E-005  
  807.50  3.7306E-004  
  808.00  5.2073E-004  
  808.50  2.8818E-004  
  809.00  8.5661E-005  
  809.50  4.4647E-005  
  810.00  1.2176E-004  
  810.50  3.2797E-004  
  811.00  9.4108E-004  
  811.50  3.4984E-004  
  812.00  1.9778E-005  
  812.50  0.0000E+000  
  813.00  5.3471E-005  
  813.50  1.7011E-003  
  814.00  3.3348E-003  
  814.50  2.9797E-003  
  815.00  1.1961E-003  
  815.50  3.1771E-004  
  816.00  9.7058E-004  
  816.50  1.5649E-003  
  817.00  1.0043E-003  
  817.50  1.2070E-003  
  818.00  2.0689E-003  
  818.50  2.8068E-003  
  819.00  2.2456E-003  
  819.50  1.0764E-003  
  820.00  1.9732E-004  
  820.50  6.3796E-004  
  821.00  6.4130E-004  
  821.50  1.7889E-005  
  822.00  0.0000E+000  
  822.50  0.0000E+000  
  823.00  0.0000E+000  
  823.50  0.0000E+000  
  824.00  0.0000E+000  
  824.50  5.8185E-004  
  825.00  1.3853E-003  
  825.50  1.9869E-003  
  826.00  2.2572E-003  
  826.50  2.2448E-003  
  827.00  2.3849E-003  
  827.50  5.8059E-004  
  828.00  0.0000E+000  
  828.50  0.0000E+000  
  829.00  0.0000E+000  
  829.50  0.0000E+000  
  830.00  2.6760E-004  
  830.50  4.4592E-004  
  831.00  2.1476E-004  
  831.50  0.0000E+000  
  832.00  0.0000E+000  
  832.50  2.2285E-004  
  833.00  0.0000E+000  
  833.50  0.0000E+000  
  834.00  0.0000E+000  
  834.50  0.0000E+000  
  835.00  0.0000E+000  
  835.50  0.0000E+000  
  836.00  6.1380E-004  
  836.50  2.7063E-003  
  837.00  2.5893E-003  
  837.50  2.5140E-003  
  838.00  1.7310E-003  
  838.50  1.1849E-003  
  839.00  0.0000E+000  
  839.50  0.0000E+000  
  840.00  9.5424E-004  
  840.50  1.6738E-003  
  841.00  4.0464E-004  
  841.50  0.0000E+000  
  842.00  0.0000E+000  
  842.50  1.3404E-004  
  843.00  3.3403E-004  
  843.50  1.0288E-005  
  844.00  1.1398E-005  
  844.50  3.2017E-005  
  845.00  0.0000E+000  
  845.50  0.0000E+000  
  846.00  0.0000E+000  
  846.50  0.0000E+000  
  847.00  0.0000E+000  
  847.50  0.0000E+000  
  848.00  0.0000E+000  
  848.50  0.0000E+000  
  849.00  0.0000E+000  
  849.50  0.0000E+000  
  850.00  1.3170E-003  
  850.50  4.5522E-006  
  851.00  2.8382E-004  
  851.50  0.0000E+000  
  852.00  0.0000E+000  
  852.50  1.6691E-004  
  853.00  7.1510E-004  
  853.50  0.0000E+000  
  854.00  0.0000E+000  
  854.50  4.0554E-004  
  855.00  1.3694E-003  
  855.50  3.4612E-004  
  856.00  5.9152E-004  
  856.50  1.3693E-003  
  857.00  5.7848E-004  
  857.50  1.1505E-003  
  858.00  1.1795E-003  
  858.50  8.1706E-006  
  859.00  0.0000E+000  
  859.50  0.0000E+000  
  860.00  0.0000E+000  
  860.50  0.0000E+000  
  861.00  0.0000E+000  
  861.50  0.0000E+000  
  862.00  0.0000E+000  
  862.50  4.9493E-004  
  863.00  2.7876E-003  
  863.50  2.3731E-003  
  864.00  9.2987E-004  
  864.50  0.0000E+000  
  865.00  0.0000E+000  
  865.50  0.0000E+000  
  866.00  0.0000E+000  
  866.50  0.0000E+000  
  867.00  1.1482E-004  
  867.50  2.8685E-005  
  868.00  9.9421E-004  
  868.50  8.3566E-005  
  869.00  1.4553E-005  
  869.50  1.1007E-003  
  870.00  1.3733E-003  
  870.50  0.0000E+000  
  871.00  0.0000E+000  
  871.50  0.0000E+000  
  872.00  0.0000E+000  
  872.50  0.0000E+000  
  873.00  1.8298E-004  
  873.50  1.9692E-003  
  874.00  2.9782E-003  
  874.50  0.0000E+000  
  875.00  0.0000E+000  
  875.50  0.0000E+000  
  876.00  1.5085E-005  
  876.50  0.0000E+000  
  877.00  0.0000E+000  
  877.50  0.0000E+000  
  878.00  0.0000E+000  
  878.50  0.0000E+000  
  879.00  0.0000E+000  
  879.50  0.0000E+000  
  880.00  0.0000E+000  
  880.50  7.8388E-004  
  881.00  1.1885E-003  
  881.50  4.5837E-004  
  882.00  0.0000E+000  
  882.50  0.0000E+000  
  883.00  0.0000E+000  
  883.50  2.8890E-003  
  884.00  2.3283E-003  
  884.50  0.0000E+000  
  885.00  3.5805E-004  
  885.50  2.1231E-003  
  886.00  7.8803E-005  
  886.50  0.0000E+000  
  887.00  3.1217E-006  
  887.50  1.4267E-003  
  888.00  3.9784E-003  
  888.50  5.4727E-003  
  889.00  4.9532E-003  
  889.50  2.4826E-003  
  890.00  0.0000E+000  
  890.50  3.9910E-004  
  891.00  2.8552E-003  
  891.50  2.8812E-003  
  892.00  1.7936E-003  
  892.50  1.3570E-004  
  893.00  0.0000E+000  
  893.50  0.0000E+000  
  894.00  0.0000E+000  
  894.50  8.7331E-004  
  895.00  5.7854E-003  
  895.50  4.5038E-003  
  896.00  2.8370E-003  
  896.50  5.2992E-004  
  897.00  0.0000E+000  
  897.50  0.0000E+000  
  898.00  8.1441E-005  
  898.50  3.3501E-004  
  899.00  3.0166E-003  
  899.50  6.2648E-005  
