
# From lspdd.org
# 
# Name: LED-Lot3-L2 QCPassed A19 -
# Indice spectral Valeur 
# MSI 0.06 
# SLI 0.19 
# IPI 0.83 
# Pourcentage de bleu 2.3 
# Caractéristique Valeur 
# CCT calculée (K) 1517 
# CCT du fabricant (K) 1500 
# Tension (V) 100 
# Puissance (W) 7.0 
# Efficacité lumineuse (Lum/W) ND 
#
# Image: '/app/system/img_1s/2785/medium_image1.JPG?1633620761'
# 

  273.00  0.0000E+000  
  273.50  0.0000E+000  
  274.00  0.0000E+000  
  274.50  0.0000E+000  
  275.00  0.0000E+000  
  275.50  0.0000E+000  
  276.00  0.0000E+000  
  276.50  0.0000E+000  
  277.00  0.0000E+000  
  277.50  0.0000E+000  
  278.00  0.0000E+000  
  278.50  0.0000E+000  
  279.00  0.0000E+000  
  279.50  0.0000E+000  
  280.00  0.0000E+000  
  280.50  0.0000E+000  
  281.00  0.0000E+000  
  281.50  0.0000E+000  
  282.00  0.0000E+000  
  282.50  0.0000E+000  
  283.00  0.0000E+000  
  283.50  0.0000E+000  
  284.00  0.0000E+000  
  284.50  0.0000E+000  
  285.00  0.0000E+000  
  285.50  0.0000E+000  
  286.00  0.0000E+000  
  286.50  0.0000E+000  
  287.00  0.0000E+000  
  287.50  0.0000E+000  
  288.00  0.0000E+000  
  288.50  0.0000E+000  
  289.00  0.0000E+000  
  289.50  0.0000E+000  
  290.00  0.0000E+000  
  290.50  0.0000E+000  
  291.00  0.0000E+000  
  291.50  0.0000E+000  
  292.00  0.0000E+000  
  292.50  0.0000E+000  
  293.00  0.0000E+000  
  293.50  0.0000E+000  
  294.00  0.0000E+000  
  294.50  0.0000E+000  
  295.00  0.0000E+000  
  295.50  0.0000E+000  
  296.00  0.0000E+000  
  296.50  0.0000E+000  
  297.00  0.0000E+000  
  297.50  0.0000E+000  
  298.00  0.0000E+000  
  298.50  0.0000E+000  
  299.00  0.0000E+000  
  299.50  0.0000E+000  
  300.00  8.1227E-005  
  300.50  3.3372E-004  
  301.00  4.9359E-004  
  301.50  5.0817E-004  
  302.00  6.3266E-004  
  302.50  4.2237E-004  
  303.00  2.1761E-004  
  303.50  1.2661E-004  
  304.00  0.0000E+000  
  304.50  0.0000E+000  
  305.00  0.0000E+000  
  305.50  0.0000E+000  
  306.00  0.0000E+000  
  306.50  0.0000E+000  
  307.00  0.0000E+000  
  307.50  0.0000E+000  
  308.00  0.0000E+000  
  308.50  7.8896E-005  
  309.00  2.6712E-004  
  309.50  4.1430E-004  
  310.00  3.5640E-004  
  310.50  1.4627E-004  
  311.00  4.8961E-005  
  311.50  0.0000E+000  
  312.00  0.0000E+000  
  312.50  0.0000E+000  
  313.00  0.0000E+000  
  313.50  0.0000E+000  
  314.00  0.0000E+000  
  314.50  0.0000E+000  
  315.00  0.0000E+000  
  315.50  0.0000E+000  
  316.00  0.0000E+000  
  316.50  0.0000E+000  
  317.00  0.0000E+000  
  317.50  0.0000E+000  
  318.00  0.0000E+000  
  318.50  6.0792E-005  
  319.00  3.4568E-005  
  319.50  0.0000E+000  
  320.00  0.0000E+000  
  320.50  0.0000E+000  
  321.00  0.0000E+000  
  321.50  0.0000E+000  
  322.00  0.0000E+000  
  322.50  0.0000E+000  
  323.00  0.0000E+000  
  323.50  0.0000E+000  
  324.00  0.0000E+000  
  324.50  0.0000E+000  
  325.00  0.0000E+000  
  325.50  0.0000E+000  
  326.00  0.0000E+000  
  326.50  0.0000E+000  
  327.00  0.0000E+000  
  327.50  0.0000E+000  
  328.00  0.0000E+000  
  328.50  0.0000E+000  
  329.00  0.0000E+000  
  329.50  0.0000E+000  
  330.00  0.0000E+000  
  330.50  0.0000E+000  
  331.00  0.0000E+000  
  331.50  0.0000E+000  
  332.00  0.0000E+000  
  332.50  0.0000E+000  
  333.00  0.0000E+000  
  333.50  0.0000E+000  
  334.00  0.0000E+000  
  334.50  0.0000E+000  
  335.00  0.0000E+000  
  335.50  0.0000E+000  
  336.00  1.7657E-008  
  336.50  7.6571E-005  
  337.00  1.3999E-004  
  337.50  1.5767E-006  
  338.00  0.0000E+000  
  338.50  0.0000E+000  
  339.00  0.0000E+000  
  339.50  0.0000E+000  
  340.00  0.0000E+000  
  340.50  0.0000E+000  
  341.00  0.0000E+000  
  341.50  0.0000E+000  
  342.00  0.0000E+000  
  342.50  0.0000E+000  
  343.00  0.0000E+000  
  343.50  0.0000E+000  
  344.00  0.0000E+000  
  344.50  0.0000E+000  
  345.00  0.0000E+000  
  345.50  0.0000E+000  
  346.00  0.0000E+000  
  346.50  0.0000E+000  
  347.00  0.0000E+000  
  347.50  0.0000E+000  
  348.00  0.0000E+000  
  348.50  0.0000E+000  
  349.00  0.0000E+000  
  349.50  0.0000E+000  
  350.00  0.0000E+000  
  350.50  0.0000E+000  
  351.00  0.0000E+000  
  351.50  0.0000E+000  
  352.00  0.0000E+000  
  352.50  1.8469E-006  
  353.00  2.1375E-004  
  353.50  4.0371E-004  
  354.00  2.2316E-004  
  354.50  0.0000E+000  
  355.00  0.0000E+000  
  355.50  0.0000E+000  
  356.00  0.0000E+000  
  356.50  0.0000E+000  
  357.00  0.0000E+000  
  357.50  0.0000E+000  
  358.00  0.0000E+000  
  358.50  0.0000E+000  
  359.00  0.0000E+000  
  359.50  0.0000E+000  
  360.00  0.0000E+000  
  360.50  0.0000E+000  
  361.00  0.0000E+000  
  361.50  5.6704E-005  
  362.00  8.9311E-007  
  362.50  0.0000E+000  
  363.00  0.0000E+000  
  363.50  0.0000E+000  
  364.00  0.0000E+000  
  364.50  1.6918E-006  
  365.00  1.9880E-006  
  365.50  0.0000E+000  
  366.00  0.0000E+000  
  366.50  0.0000E+000  
  367.00  0.0000E+000  
  367.50  0.0000E+000  
  368.00  2.0861E-004  
  368.50  2.3653E-004  
  369.00  5.4187E-005  
  369.50  4.5443E-006  
  370.00  0.0000E+000  
  370.50  0.0000E+000  
  371.00  0.0000E+000  
  371.50  0.0000E+000  
  372.00  0.0000E+000  
  372.50  0.0000E+000  
  373.00  0.0000E+000  
  373.50  0.0000E+000  
  374.00  0.0000E+000  
  374.50  0.0000E+000  
  375.00  0.0000E+000  
  375.50  0.0000E+000  
  376.00  0.0000E+000  
  376.50  0.0000E+000  
  377.00  0.0000E+000  
  377.50  0.0000E+000  
  378.00  0.0000E+000  
  378.50  0.0000E+000  
  379.00  0.0000E+000  
  379.50  0.0000E+000  
  380.00  0.0000E+000  
  380.50  0.0000E+000  
  381.00  0.0000E+000  
  381.50  0.0000E+000  
  382.00  0.0000E+000  
  382.50  0.0000E+000  
  383.00  0.0000E+000  
  383.50  0.0000E+000  
  384.00  0.0000E+000  
  384.50  0.0000E+000  
  385.00  0.0000E+000  
  385.50  0.0000E+000  
  386.00  0.0000E+000  
  386.50  0.0000E+000  
  387.00  0.0000E+000  
  387.50  0.0000E+000  
  388.00  0.0000E+000  
  388.50  0.0000E+000  
  389.00  0.0000E+000  
  389.50  4.8329E-005  
  390.00  3.8971E-004  
  390.50  5.1854E-004  
  391.00  3.3828E-004  
  391.50  1.7187E-004  
  392.00  0.0000E+000  
  392.50  0.0000E+000  
  393.00  0.0000E+000  
  393.50  0.0000E+000  
  394.00  0.0000E+000  
  394.50  0.0000E+000  
  395.00  0.0000E+000  
  395.50  0.0000E+000  
  396.00  0.0000E+000  
  396.50  0.0000E+000  
  397.00  0.0000E+000  
  397.50  0.0000E+000  
  398.00  0.0000E+000  
  398.50  0.0000E+000  
  399.00  0.0000E+000  
  399.50  0.0000E+000  
  400.00  0.0000E+000  
  400.50  0.0000E+000  
  401.00  0.0000E+000  
  401.50  0.0000E+000  
  402.00  0.0000E+000  
  402.50  2.9488E-006  
  403.00  4.5283E-005  
  403.50  2.2309E-006  
  404.00  0.0000E+000  
  404.50  0.0000E+000  
  405.00  0.0000E+000  
  405.50  5.7969E-005  
  406.00  4.2973E-005  
  406.50  0.0000E+000  
  407.00  2.3262E-006  
  407.50  1.3970E-004  
  408.00  1.1615E-004  
  408.50  1.3835E-005  
  409.00  0.0000E+000  
  409.50  0.0000E+000  
  410.00  0.0000E+000  
  410.50  0.0000E+000  
  411.00  0.0000E+000  
  411.50  0.0000E+000  
  412.00  0.0000E+000  
  412.50  0.0000E+000  
  413.00  0.0000E+000  
  413.50  0.0000E+000  
  414.00  0.0000E+000  
  414.50  4.4948E-005  
  415.00  9.7232E-005  
  415.50  1.3844E-004  
  416.00  1.2530E-004  
  416.50  9.7961E-006  
  417.00  0.0000E+000  
  417.50  0.0000E+000  
  418.00  0.0000E+000  
  418.50  4.1155E-005  
  419.00  2.2526E-004  
  419.50  1.9939E-004  
  420.00  4.4330E-005  
  420.50  0.0000E+000  
  421.00  0.0000E+000  
  421.50  0.0000E+000  
  422.00  3.0243E-004  
  422.50  6.8125E-004  
  423.00  7.3123E-004  
  423.50  4.5131E-004  
  424.00  2.0962E-004  
  424.50  2.5394E-004  
  425.00  4.6651E-004  
  425.50  4.6731E-004  
  426.00  6.1556E-004  
  426.50  6.5340E-004  
  427.00  7.8481E-004  
  427.50  8.9644E-004  
  428.00  7.0462E-004  
  428.50  7.7492E-004  
  429.00  8.4496E-004  
  429.50  8.1387E-004  
  430.00  6.3242E-004  
  430.50  5.3592E-004  
  431.00  5.9504E-004  
  431.50  6.7435E-004  
  432.00  6.2233E-004  
  432.50  6.3521E-004  
  433.00  6.8555E-004  
  433.50  5.2792E-004  
  434.00  3.5515E-004  
  434.50  2.0125E-004  
  435.00  3.6507E-004  
  435.50  6.9882E-004  
  436.00  7.8215E-004  
  436.50  6.3993E-004  
  437.00  4.9476E-004  
  437.50  3.1669E-004  
  438.00  4.9284E-004  
  438.50  5.1538E-004  
  439.00  5.4045E-004  
  439.50  4.4714E-004  
  440.00  4.8360E-004  
  440.50  6.7388E-004  
  441.00  8.8323E-004  
  441.50  9.1218E-004  
  442.00  8.3025E-004  
  442.50  8.2769E-004  
  443.00  1.0126E-003  
  443.50  1.0398E-003  
  444.00  1.1049E-003  
  444.50  1.0315E-003  
  445.00  1.0512E-003  
  445.50  1.0838E-003  
  446.00  1.0794E-003  
  446.50  1.0337E-003  
  447.00  9.8050E-004  
  447.50  1.0844E-003  
  448.00  9.7344E-004  
  448.50  7.0019E-004  
  449.00  4.7092E-004  
  449.50  2.2562E-004  
  450.00  3.7782E-004  
  450.50  6.1518E-004  
  451.00  6.6990E-004  
  451.50  7.2382E-004  
  452.00  7.2575E-004  
  452.50  5.1428E-004  
  453.00  3.9851E-004  
  453.50  5.0255E-005  
  454.00  0.0000E+000  
  454.50  0.0000E+000  
  455.00  0.0000E+000  
  455.50  0.0000E+000  
  456.00  3.0244E-005  
  456.50  8.7985E-005  
  457.00  3.3164E-005  
  457.50  0.0000E+000  
  458.00  0.0000E+000  
  458.50  0.0000E+000  
  459.00  0.0000E+000  
  459.50  0.0000E+000  
  460.00  0.0000E+000  
  460.50  0.0000E+000  
  461.00  0.0000E+000  
  461.50  0.0000E+000  
  462.00  0.0000E+000  
  462.50  0.0000E+000  
  463.00  0.0000E+000  
  463.50  4.2170E-005  
  464.00  1.7465E-004  
  464.50  1.2759E-004  
  465.00  1.9061E-004  
  465.50  3.5847E-004  
  466.00  2.5188E-004  
  466.50  3.4103E-004  
  467.00  1.9565E-004  
  467.50  2.0943E-004  
  468.00  1.8567E-004  
  468.50  3.1206E-005  
  469.00  0.0000E+000  
  469.50  0.0000E+000  
  470.00  0.0000E+000  
  470.50  0.0000E+000  
  471.00  2.0595E-004  
  471.50  3.3690E-004  
  472.00  1.7640E-004  
  472.50  4.0018E-005  
  473.00  0.0000E+000  
  473.50  2.1642E-005  
  474.00  3.8945E-005  
  474.50  5.0176E-005  
  475.00  8.1825E-005  
  475.50  4.4048E-006  
  476.00  0.0000E+000  
  476.50  0.0000E+000  
  477.00  0.0000E+000  
  477.50  1.0365E-004  
  478.00  2.1849E-004  
  478.50  1.9184E-004  
  479.00  1.1330E-004  
  479.50  1.4308E-004  
  480.00  1.1624E-004  
  480.50  1.2898E-005  
  481.00  0.0000E+000  
  481.50  0.0000E+000  
  482.00  2.9428E-005  
  482.50  2.3170E-004  
  483.00  4.9378E-004  
  483.50  5.8605E-004  
  484.00  5.1699E-004  
  484.50  3.2991E-004  
  485.00  5.8769E-005  
  485.50  1.4433E-004  
  486.00  2.7642E-004  
  486.50  3.9997E-004  
  487.00  2.7268E-004  
  487.50  1.0540E-004  
  488.00  1.2940E-005  
  488.50  1.5012E-004  
  489.00  3.5552E-004  
  489.50  5.9951E-004  
  490.00  6.1882E-004  
  490.50  6.3214E-004  
  491.00  5.5799E-004  
  491.50  5.3478E-004  
  492.00  5.4773E-004  
  492.50  4.8003E-004  
  493.00  4.6495E-004  
  493.50  5.5175E-004  
  494.00  8.0628E-004  
  494.50  9.6642E-004  
  495.00  9.9332E-004  
  495.50  8.4985E-004  
  496.00  7.6290E-004  
  496.50  9.5682E-004  
  497.00  1.1776E-003  
  497.50  1.2992E-003  
  498.00  1.3457E-003  
  498.50  1.3078E-003  
  499.00  1.3506E-003  
  499.50  1.4498E-003  
  500.00  1.4835E-003  
  500.50  1.5923E-003  
  501.00  1.5861E-003  
  501.50  1.5824E-003  
  502.00  1.6589E-003  
  502.50  1.8364E-003  
  503.00  2.0085E-003  
  503.50  1.9770E-003  
  504.00  1.9161E-003  
  504.50  1.9853E-003  
  505.00  2.2246E-003  
  505.50  2.5106E-003  
  506.00  2.6828E-003  
  506.50  2.7234E-003  
  507.00  2.7823E-003  
  507.50  2.8363E-003  
  508.00  3.1233E-003  
  508.50  3.3746E-003  
  509.00  3.5744E-003  
  509.50  3.5856E-003  
  510.00  3.5496E-003  
  510.50  3.6161E-003  
  511.00  3.7858E-003  
  511.50  4.1019E-003  
  512.00  4.3623E-003  
  512.50  4.5365E-003  
  513.00  4.5926E-003  
  513.50  4.6789E-003  
  514.00  4.8106E-003  
  514.50  4.9899E-003  
  515.00  5.1069E-003  
  515.50  5.2949E-003  
  516.00  5.4381E-003  
  516.50  5.6038E-003  
  517.00  5.6376E-003  
  517.50  5.5827E-003  
  518.00  5.5481E-003  
  518.50  5.6241E-003  
  519.00  5.7899E-003  
  519.50  5.9985E-003  
  520.00  6.2221E-003  
  520.50  6.5239E-003  
  521.00  6.8199E-003  
  521.50  7.0754E-003  
  522.00  7.1019E-003  
  522.50  7.0778E-003  
  523.00  7.0355E-003  
  523.50  7.2589E-003  
  524.00  7.4677E-003  
  524.50  7.6686E-003  
  525.00  7.7343E-003  
  525.50  7.6808E-003  
  526.00  7.6999E-003  
  526.50  7.7842E-003  
  527.00  7.9963E-003  
  527.50  8.3575E-003  
  528.00  8.6562E-003  
  528.50  8.9463E-003  
  529.00  9.0270E-003  
  529.50  9.0650E-003  
  530.00  9.1048E-003  
  530.50  9.1123E-003  
  531.00  9.2408E-003  
  531.50  9.3440E-003  
  532.00  9.4370E-003  
  532.50  9.5806E-003  
  533.00  9.6672E-003  
  533.50  9.7934E-003  
  534.00  1.0078E-002  
  534.50  1.0196E-002  
  535.00  1.0362E-002  
  535.50  1.0304E-002  
  536.00  1.0169E-002  
  536.50  1.0218E-002  
  537.00  1.0395E-002  
  537.50  1.0542E-002  
  538.00  1.0560E-002  
  538.50  1.0628E-002  
  539.00  1.0908E-002  
  539.50  1.1325E-002  
  540.00  1.1576E-002  
  540.50  1.1690E-002  
  541.00  1.1793E-002  
  541.50  1.1943E-002  
  542.00  1.2008E-002  
  542.50  1.2045E-002  
  543.00  1.2007E-002  
  543.50  1.2190E-002  
  544.00  1.2389E-002  
  544.50  1.2628E-002  
  545.00  1.2915E-002  
  545.50  1.3204E-002  
  546.00  1.3366E-002  
  546.50  1.3402E-002  
  547.00  1.3379E-002  
  547.50  1.3396E-002  
  548.00  1.3614E-002  
  548.50  1.3966E-002  
  549.00  1.4446E-002  
  549.50  1.4863E-002  
  550.00  1.5123E-002  
  550.50  1.5078E-002  
  551.00  1.4992E-002  
  551.50  1.4909E-002  
  552.00  1.5205E-002  
  552.50  1.5543E-002  
  553.00  1.5833E-002  
  553.50  1.6137E-002  
  554.00  1.6349E-002  
  554.50  1.6565E-002  
  555.00  1.6805E-002  
  555.50  1.6827E-002  
  556.00  1.6965E-002  
  556.50  1.7201E-002  
  557.00  1.7554E-002  
  557.50  1.7956E-002  
  558.00  1.8257E-002  
  558.50  1.8612E-002  
  559.00  1.8983E-002  
  559.50  1.9367E-002  
  560.00  1.9641E-002  
  560.50  1.9802E-002  
  561.00  2.0107E-002  
  561.50  2.0557E-002  
  562.00  2.1014E-002  
  562.50  2.1414E-002  
  563.00  2.1779E-002  
  563.50  2.2201E-002  
  564.00  2.2751E-002  
  564.50  2.3146E-002  
  565.00  2.3522E-002  
  565.50  2.4002E-002  
  566.00  2.4488E-002  
  566.50  2.4891E-002  
  567.00  2.5131E-002  
  567.50  2.5312E-002  
  568.00  2.5567E-002  
  568.50  2.6086E-002  
  569.00  2.6662E-002  
  569.50  2.7404E-002  
  570.00  2.7916E-002  
  570.50  2.8409E-002  
  571.00  2.8921E-002  
  571.50  2.9447E-002  
  572.00  3.0042E-002  
  572.50  3.0465E-002  
  573.00  3.0940E-002  
  573.50  3.1382E-002  
  574.00  3.1952E-002  
  574.50  3.2653E-002  
  575.00  3.3371E-002  
  575.50  3.4074E-002  
  576.00  3.4635E-002  
  576.50  3.5287E-002  
  577.00  3.6050E-002  
  577.50  3.6890E-002  
  578.00  3.7539E-002  
  578.50  3.8314E-002  
  579.00  3.8721E-002  
  579.50  3.9247E-002  
  580.00  3.9848E-002  
  580.50  4.0627E-002  
  581.00  4.1504E-002  
  581.50  4.2033E-002  
  582.00  4.2615E-002  
  582.50  4.3398E-002  
  583.00  4.4250E-002  
  583.50  4.5090E-002  
  584.00  4.5925E-002  
  584.50  4.6829E-002  
  585.00  4.7786E-002  
  585.50  4.8499E-002  
  586.00  4.9113E-002  
  586.50  4.9792E-002  
  587.00  5.0567E-002  
  587.50  5.1316E-002  
  588.00  5.1876E-002  
  588.50  5.2609E-002  
  589.00  5.3292E-002  
  589.50  5.4111E-002  
  590.00  5.4878E-002  
  590.50  5.6041E-002  
  591.00  5.7182E-002  
  591.50  5.8075E-002  
  592.00  5.8538E-002  
  592.50  5.8872E-002  
  593.00  5.9620E-002  
  593.50  6.0530E-002  
  594.00  6.1660E-002  
  594.50  6.2579E-002  
  595.00  6.3265E-002  
  595.50  6.3714E-002  
  596.00  6.4421E-002  
  596.50  6.5317E-002  
  597.00  6.6313E-002  
  597.50  6.6961E-002  
  598.00  6.7318E-002  
  598.50  6.7703E-002  
  599.00  6.8229E-002  
  599.50  6.8759E-002  
  600.00  6.9427E-002  
  600.50  7.0056E-002  
  601.00  7.0770E-002  
  601.50  7.1392E-002  
  602.00  7.2123E-002  
  602.50  7.3135E-002  
  603.00  7.3853E-002  
  603.50  7.4151E-002  
  604.00  7.4031E-002  
  604.50  7.4248E-002  
  605.00  7.5029E-002  
  605.50  7.5787E-002  
  606.00  7.6252E-002  
  606.50  7.6469E-002  
  607.00  7.6762E-002  
  607.50  7.7330E-002  
  608.00  7.7725E-002  
  608.50  7.7876E-002  
  609.00  7.8274E-002  
  609.50  7.8557E-002  
  610.00  7.9195E-002  
  610.50  7.9451E-002  
  611.00  7.9756E-002  
  611.50  8.0193E-002  
  612.00  8.0327E-002  
  612.50  8.0303E-002  
  613.00  8.0174E-002  
  613.50  8.0345E-002  
  614.00  8.0700E-002  
  614.50  8.0672E-002  
  615.00  8.0686E-002  
  615.50  8.0556E-002  
  616.00  8.0757E-002  
  616.50  8.0812E-002  
  617.00  8.1093E-002  
  617.50  8.1271E-002  
  618.00  8.1478E-002  
  618.50  8.1534E-002  
  619.00  8.1633E-002  
  619.50  8.1680E-002  
  620.00  8.1505E-002  
  620.50  8.1138E-002  
  621.00  8.1008E-002  
  621.50  8.0995E-002  
  622.00  8.1078E-002  
  622.50  8.0922E-002  
  623.00  8.0716E-002  
  623.50  8.0298E-002  
  624.00  7.9737E-002  
  624.50  7.9497E-002  
  625.00  7.9481E-002  
  625.50  7.9455E-002  
  626.00  7.9110E-002  
  626.50  7.9028E-002  
  627.00  7.8840E-002  
  627.50  7.8539E-002  
  628.00  7.8450E-002  
  628.50  7.8264E-002  
  629.00  7.7832E-002  
  629.50  7.7174E-002  
  630.00  7.7166E-002  
  630.50  7.7540E-002  
  631.00  7.7585E-002  
  631.50  7.7178E-002  
  632.00  7.6572E-002  
  632.50  7.5928E-002  
  633.00  7.5313E-002  
  633.50  7.4775E-002  
  634.00  7.4752E-002  
  634.50  7.4562E-002  
  635.00  7.4316E-002  
  635.50  7.3472E-002  
  636.00  7.2852E-002  
  636.50  7.2167E-002  
  637.00  7.1912E-002  
  637.50  7.1519E-002  
  638.00  7.1335E-002  
  638.50  7.0921E-002  
  639.00  7.0481E-002  
  639.50  6.9737E-002  
  640.00  6.9012E-002  
  640.50  6.8458E-002  
  641.00  6.8153E-002  
  641.50  6.7887E-002  
  642.00  6.7326E-002  
  642.50  6.6715E-002  
  643.00  6.6125E-002  
  643.50  6.5990E-002  
  644.00  6.5706E-002  
  644.50  6.5330E-002  
  645.00  6.4744E-002  
  645.50  6.4048E-002  
  646.00  6.3642E-002  
  646.50  6.3468E-002  
  647.00  6.3323E-002  
  647.50  6.2667E-002  
  648.00  6.1694E-002  
  648.50  6.0748E-002  
  649.00  5.9995E-002  
  649.50  5.9292E-002  
  650.00  5.8861E-002  
  650.50  5.8830E-002  
  651.00  5.8538E-002  
  651.50  5.8057E-002  
  652.00  5.7410E-002  
  652.50  5.6779E-002  
  653.00  5.6155E-002  
  653.50  5.5429E-002  
  654.00  5.4902E-002  
  654.50  5.4469E-002  
  655.00  5.4003E-002  
  655.50  5.3749E-002  
  656.00  5.3391E-002  
  656.50  5.2857E-002  
  657.00  5.2039E-002  
  657.50  5.1378E-002  
  658.00  5.0846E-002  
  658.50  5.0203E-002  
  659.00  4.9636E-002  
  659.50  4.9352E-002  
  660.00  4.9285E-002  
  660.50  4.8890E-002  
  661.00  4.8054E-002  
  661.50  4.7131E-002  
  662.00  4.6295E-002  
  662.50  4.5952E-002  
  663.00  4.5688E-002  
  663.50  4.5299E-002  
  664.00  4.4755E-002  
  664.50  4.4088E-002  
  665.00  4.3319E-002  
  665.50  4.2384E-002  
  666.00  4.1313E-002  
  666.50  4.0595E-002  
  667.00  4.0094E-002  
  667.50  4.0142E-002  
  668.00  4.0389E-002  
  668.50  3.9983E-002  
  669.00  3.9334E-002  
  669.50  3.8407E-002  
  670.00  3.7821E-002  
  670.50  3.7399E-002  
  671.00  3.6936E-002  
  671.50  3.6886E-002  
  672.00  3.6617E-002  
  672.50  3.6400E-002  
  673.00  3.5773E-002  
  673.50  3.5150E-002  
  674.00  3.4468E-002  
  674.50  3.3973E-002  
  675.00  3.3081E-002  
  675.50  3.2366E-002  
  676.00  3.1772E-002  
  676.50  3.1527E-002  
  677.00  3.1391E-002  
  677.50  3.1111E-002  
  678.00  3.0885E-002  
  678.50  3.0601E-002  
  679.00  3.0372E-002  
  679.50  2.9864E-002  
  680.00  2.9189E-002  
  680.50  2.8431E-002  
  681.00  2.7788E-002  
  681.50  2.7155E-002  
  682.00  2.6847E-002  
  682.50  2.6864E-002  
  683.00  2.7093E-002  
  683.50  2.6733E-002  
  684.00  2.6294E-002  
  684.50  2.5475E-002  
  685.00  2.4728E-002  
  685.50  2.4184E-002  
  686.00  2.3990E-002  
  686.50  2.4119E-002  
  687.00  2.3901E-002  
  687.50  2.3592E-002  
  688.00  2.3288E-002  
  688.50  2.3034E-002  
  689.00  2.2565E-002  
  689.50  2.1974E-002  
  690.00  2.1406E-002  
  690.50  2.1113E-002  
  691.00  2.0803E-002  
  691.50  2.0420E-002  
  692.00  1.9939E-002  
  692.50  1.9680E-002  
  693.00  1.9381E-002  
  693.50  1.9138E-002  
  694.00  1.9082E-002  
  694.50  1.9156E-002  
  695.00  1.9063E-002  
  695.50  1.9247E-002  
  696.00  1.9160E-002  
  696.50  1.8835E-002  
  697.00  1.7996E-002  
  697.50  1.7393E-002  
  698.00  1.7029E-002  
  698.50  1.6731E-002  
  699.00  1.6542E-002  
  699.50  1.6495E-002  
  700.00  1.6172E-002  
  700.50  1.6041E-002  
  701.00  1.6004E-002  
  701.50  1.5584E-002  
  702.00  1.4938E-002  
  702.50  1.4707E-002  
  703.00  1.4596E-002  
  703.50  1.4120E-002  
  704.00  1.3499E-002  
  704.50  1.3193E-002  
  705.00  1.3410E-002  
  705.50  1.3685E-002  
  706.00  1.3690E-002  
  706.50  1.3161E-002  
  707.00  1.2540E-002  
  707.50  1.2257E-002  
  708.00  1.1928E-002  
  708.50  1.1733E-002  
  709.00  1.1335E-002  
  709.50  1.1272E-002  
  710.00  1.1066E-002  
  710.50  1.1066E-002  
  711.00  1.1041E-002  
  711.50  1.1299E-002  
  712.00  1.1302E-002  
  712.50  1.0994E-002  
  713.00  1.0332E-002  
  713.50  1.0097E-002  
  714.00  1.0134E-002  
  714.50  1.0599E-002  
  715.00  1.0298E-002  
  715.50  9.5225E-003  
  716.00  9.1613E-003  
  716.50  9.1981E-003  
  717.00  9.4289E-003  
  717.50  9.3426E-003  
  718.00  9.1359E-003  
  718.50  8.6860E-003  
  719.00  8.3090E-003  
  719.50  8.7076E-003  
  720.00  9.1798E-003  
  720.50  9.1510E-003  
  721.00  8.3842E-003  
  721.50  7.7387E-003  
  722.00  7.6483E-003  
  722.50  7.7073E-003  
  723.00  7.7236E-003  
  723.50  7.4019E-003  
  724.00  7.2001E-003  
  724.50  7.2188E-003  
  725.00  7.4215E-003  
  725.50  7.5177E-003  
  726.00  7.4214E-003  
  726.50  7.4825E-003  
  727.00  7.4588E-003  
  727.50  7.0691E-003  
  728.00  6.4018E-003  
  728.50  5.6922E-003  
  729.00  5.5398E-003  
  729.50  5.1675E-003  
  730.00  4.7962E-003  
  730.50  4.5816E-003  
  731.00  5.3436E-003  
  731.50  6.1272E-003  
  732.00  6.2685E-003  
  732.50  5.9746E-003  
  733.00  5.8600E-003  
  733.50  6.0182E-003  
  734.00  5.8694E-003  
  734.50  5.7440E-003  
  735.00  5.3865E-003  
  735.50  5.1082E-003  
  736.00  4.8455E-003  
  736.50  5.1840E-003  
  737.00  5.0463E-003  
  737.50  4.9048E-003  
  738.00  4.2603E-003  
  738.50  4.0407E-003  
  739.00  3.8994E-003  
  739.50  4.2295E-003  
  740.00  4.4231E-003  
  740.50  3.5239E-003  
  741.00  2.8706E-003  
  741.50  2.8452E-003  
  742.00  2.8064E-003  
  742.50  2.4363E-003  
  743.00  2.5095E-003  
  743.50  3.2206E-003  
  744.00  3.5712E-003  
  744.50  3.3744E-003  
  745.00  3.2533E-003  
  745.50  3.2561E-003  
  746.00  3.2362E-003  
  746.50  3.2729E-003  
  747.00  3.2960E-003  
  747.50  3.5323E-003  
  748.00  3.3355E-003  
  748.50  3.3252E-003  
  749.00  2.9364E-003  
  749.50  2.6720E-003  
  750.00  2.5838E-003  
  750.50  3.2796E-003  
  751.00  4.0674E-003  
  751.50  3.7558E-003  
  752.00  3.0515E-003  
  752.50  3.1766E-003  
  753.00  3.2807E-003  
  753.50  3.2393E-003  
  754.00  2.5415E-003  
  754.50  2.5505E-003  
  755.00  2.2958E-003  
  755.50  2.1597E-003  
  756.00  2.0250E-003  
  756.50  1.8459E-003  
  757.00  1.5621E-003  
  757.50  1.5599E-003  
  758.00  2.1677E-003  
  758.50  2.5831E-003  
  759.00  2.3757E-003  
  759.50  1.9206E-003  
  760.00  1.9303E-003  
  760.50  2.1535E-003  
  761.00  2.2294E-003  
  761.50  1.9663E-003  
  762.00  1.8805E-003  
  762.50  1.6421E-003  
  763.00  1.8347E-003  
  763.50  1.6802E-003  
  764.00  2.0130E-003  
  764.50  1.6214E-003  
  765.00  1.3246E-003  
  765.50  9.1584E-004  
  766.00  7.9896E-004  
  766.50  6.6489E-004  
  767.00  7.4042E-004  
  767.50  5.8135E-004  
  768.00  6.9474E-004  
  768.50  7.4687E-004  
  769.00  7.1666E-004  
  769.50  6.1671E-004  
  770.00  1.3669E-003  
  770.50  2.4826E-003  
  771.00  2.2519E-003  
  771.50  1.2361E-003  
  772.00  8.9272E-004  
  772.50  1.1004E-003  
  773.00  1.0306E-003  
  773.50  6.6232E-004  
  774.00  3.7612E-004  
  774.50  7.2610E-004  
  775.00  1.0228E-003  
  775.50  9.1215E-004  
  776.00  3.0826E-004  
  776.50  1.1105E-004  
  777.00  4.1657E-004  
  777.50  5.3615E-004  
  778.00  7.2636E-004  
  778.50  1.2882E-003  
  779.00  1.4928E-003  
  779.50  5.2778E-004  
  780.00  0.0000E+000  
  780.50  3.2049E-004  
  781.00  7.0972E-004  
  781.50  8.1594E-005  
  782.00  0.0000E+000  
  782.50  0.0000E+000  
  783.00  2.6858E-004  
  783.50  5.7513E-005  
  784.00  6.2160E-004  
  784.50  1.6576E-003  
  785.00  2.1249E-003  
  785.50  1.2308E-003  
  786.00  1.9379E-004  
  786.50  1.8764E-004  
  787.00  1.2411E-003  
  787.50  2.3494E-003  
  788.00  1.8828E-003  
  788.50  9.7441E-004  
  789.00  4.6712E-004  
  789.50  5.0928E-004  
  790.00  3.6637E-004  
  790.50  5.1203E-006  
  791.00  0.0000E+000  
  791.50  0.0000E+000  
  792.00  0.0000E+000  
  792.50  1.4092E-004  
  793.00  6.1453E-004  
  793.50  1.0394E-003  
  794.00  1.7783E-003  
  794.50  2.0653E-003  
  795.00  1.3072E-003  
  795.50  9.4224E-004  
  796.00  8.5557E-004  
  796.50  4.3337E-004  
  797.00  0.0000E+000  
  797.50  0.0000E+000  
  798.00  0.0000E+000  
  798.50  0.0000E+000  
  799.00  0.0000E+000  
  799.50  0.0000E+000  
  800.00  0.0000E+000  
  800.50  0.0000E+000  
  801.00  3.8644E-004  
  801.50  9.2519E-004  
  802.00  6.3338E-004  
  802.50  0.0000E+000  
  803.00  0.0000E+000  
  803.50  0.0000E+000  
  804.00  0.0000E+000  
  804.50  0.0000E+000  
  805.00  0.0000E+000  
  805.50  0.0000E+000  
  806.00  0.0000E+000  
  806.50  0.0000E+000  
  807.00  3.7728E-004  
  807.50  1.1057E-003  
  808.00  1.9307E-004  
  808.50  5.4772E-004  
  809.00  1.0969E-003  
  809.50  1.7845E-003  
  810.00  1.0398E-003  
  810.50  7.4135E-004  
  811.00  4.1861E-004  
  811.50  0.0000E+000  
  812.00  0.0000E+000  
  812.50  0.0000E+000  
  813.00  0.0000E+000  
  813.50  0.0000E+000  
  814.00  0.0000E+000  
  814.50  0.0000E+000  
  815.00  0.0000E+000  
  815.50  0.0000E+000  
  816.00  0.0000E+000  
  816.50  3.9509E-004  
  817.00  1.4191E-003  
  817.50  1.2892E-003  
  818.00  1.1109E-003  
  818.50  5.9297E-004  
  819.00  3.2677E-004  
  819.50  0.0000E+000  
  820.00  0.0000E+000  
  820.50  0.0000E+000  
  821.00  0.0000E+000  
  821.50  0.0000E+000  
  822.00  0.0000E+000  
  822.50  0.0000E+000  
  823.00  0.0000E+000  
  823.50  0.0000E+000  
  824.00  0.0000E+000  
  824.50  0.0000E+000  
  825.00  0.0000E+000  
  825.50  0.0000E+000  
  826.00  0.0000E+000  
  826.50  0.0000E+000  
  827.00  0.0000E+000  
  827.50  0.0000E+000  
  828.00  0.0000E+000  
  828.50  0.0000E+000  
  829.00  0.0000E+000  
  829.50  0.0000E+000  
  830.00  0.0000E+000  
  830.50  0.0000E+000  
  831.00  0.0000E+000  
  831.50  0.0000E+000  
  832.00  0.0000E+000  
  832.50  0.0000E+000  
  833.00  0.0000E+000  
  833.50  0.0000E+000  
  834.00  0.0000E+000  
  834.50  0.0000E+000  
  835.00  0.0000E+000  
  835.50  0.0000E+000  
  836.00  0.0000E+000  
  836.50  0.0000E+000  
  837.00  0.0000E+000  
  837.50  0.0000E+000  
  838.00  0.0000E+000  
  838.50  6.8349E-006  
  839.00  0.0000E+000  
  839.50  0.0000E+000  
  840.00  0.0000E+000  
  840.50  0.0000E+000  
  841.00  0.0000E+000  
  841.50  0.0000E+000  
  842.00  1.7144E-004  
  842.50  3.1122E-004  
  843.00  0.0000E+000  
  843.50  0.0000E+000  
  844.00  0.0000E+000  
  844.50  0.0000E+000  
  845.00  0.0000E+000  
  845.50  0.0000E+000  
  846.00  9.8151E-004  
  846.50  1.3664E-003  
  847.00  0.0000E+000  
  847.50  0.0000E+000  
  848.00  0.0000E+000  
  848.50  0.0000E+000  
  849.00  0.0000E+000  
  849.50  0.0000E+000  
  850.00  0.0000E+000  
  850.50  5.5453E-005  
  851.00  0.0000E+000  
  851.50  0.0000E+000  
  852.00  0.0000E+000  
  852.50  0.0000E+000  
  853.00  4.3054E-004  
  853.50  4.7354E-004  
  854.00  0.0000E+000  
  854.50  0.0000E+000  
  855.00  0.0000E+000  
  855.50  0.0000E+000  
  856.00  2.7521E-004  
  856.50  2.5379E-003  
  857.00  2.9125E-003  
  857.50  5.7416E-005  
  858.00  0.0000E+000  
  858.50  1.1578E-006  
  859.00  1.6092E-003  
  859.50  1.5791E-003  
  860.00  7.6083E-004  
  860.50  1.0464E-003  
  861.00  9.6918E-004  
  861.50  1.2316E-004  
  862.00  0.0000E+000  
  862.50  9.9189E-004  
  863.00  1.0618E-003  
  863.50  0.0000E+000  
  864.00  0.0000E+000  
  864.50  0.0000E+000  
  865.00  0.0000E+000  
  865.50  0.0000E+000  
  866.00  0.0000E+000  
  866.50  0.0000E+000  
  867.00  0.0000E+000  
  867.50  0.0000E+000  
  868.00  0.0000E+000  
  868.50  1.8855E-005  
  869.00  2.3729E-003  
  869.50  1.9137E-003  
  870.00  0.0000E+000  
  870.50  0.0000E+000  
  871.00  0.0000E+000  
  871.50  0.0000E+000  
  872.00  3.6962E-004  
  872.50  2.3797E-003  
  873.00  1.5598E-003  
  873.50  0.0000E+000  
  874.00  0.0000E+000  
  874.50  0.0000E+000  
  875.00  0.0000E+000  
  875.50  0.0000E+000  
  876.00  0.0000E+000  
  876.50  0.0000E+000  
  877.00  0.0000E+000  
  877.50  0.0000E+000  
  878.00  3.1291E-004  
  878.50  0.0000E+000  
  879.00  0.0000E+000  
  879.50  0.0000E+000  
  880.00  0.0000E+000  
  880.50  0.0000E+000  
  881.00  0.0000E+000  
  881.50  0.0000E+000  
  882.00  0.0000E+000  
  882.50  0.0000E+000  
  883.00  0.0000E+000  
  883.50  0.0000E+000  
  884.00  0.0000E+000  
  884.50  0.0000E+000  
  885.00  0.0000E+000  
  885.50  0.0000E+000  
  886.00  0.0000E+000  
  886.50  0.0000E+000  
  887.00  0.0000E+000  
  887.50  0.0000E+000  
  888.00  0.0000E+000  
  888.50  0.0000E+000  
  889.00  0.0000E+000  
  889.50  0.0000E+000  
  890.00  0.0000E+000  
  890.50  0.0000E+000  
  891.00  0.0000E+000  
  891.50  0.0000E+000  
  892.00  1.4633E-003  
  892.50  1.7249E-003  
  893.00  0.0000E+000  
  893.50  0.0000E+000  
  894.00  0.0000E+000  
  894.50  0.0000E+000  
  895.00  0.0000E+000  
  895.50  0.0000E+000  
  896.00  0.0000E+000  
  896.50  0.0000E+000  
  897.00  0.0000E+000  
  897.50  0.0000E+000  
  898.00  9.8336E-004  
  898.50  4.2641E-003  
  899.00  4.3452E-003  
  899.50  1.9888E-005  
