
# From lspdd.org
# 
# Name: LED-Lot2-L1 QCPassed A19 -
# Indice spectral Valeur 
# MSI 0.06 
# SLI 0.19 
# IPI 0.83 
# Pourcentage de bleu 2.3 
# Caractéristique Valeur 
# CCT calculée (K) 1514 
# CCT du fabricant (K) 1500 
# Tension (V) 100 
# Puissance (W) 7.0 
# Efficacité lumineuse (Lum/W) ND 
#
# Image: '/app/system/img_1s/2786/medium_image1.JPG?1633620761'
# 

  273.00  0.0000E+000  
  273.50  0.0000E+000  
  274.00  0.0000E+000  
  274.50  0.0000E+000  
  275.00  0.0000E+000  
  275.50  0.0000E+000  
  276.00  0.0000E+000  
  276.50  0.0000E+000  
  277.00  0.0000E+000  
  277.50  0.0000E+000  
  278.00  0.0000E+000  
  278.50  0.0000E+000  
  279.00  0.0000E+000  
  279.50  0.0000E+000  
  280.00  0.0000E+000  
  280.50  0.0000E+000  
  281.00  0.0000E+000  
  281.50  0.0000E+000  
  282.00  0.0000E+000  
  282.50  0.0000E+000  
  283.00  0.0000E+000  
  283.50  0.0000E+000  
  284.00  0.0000E+000  
  284.50  0.0000E+000  
  285.00  0.0000E+000  
  285.50  0.0000E+000  
  286.00  0.0000E+000  
  286.50  0.0000E+000  
  287.00  0.0000E+000  
  287.50  0.0000E+000  
  288.00  0.0000E+000  
  288.50  0.0000E+000  
  289.00  0.0000E+000  
  289.50  0.0000E+000  
  290.00  0.0000E+000  
  290.50  0.0000E+000  
  291.00  0.0000E+000  
  291.50  0.0000E+000  
  292.00  0.0000E+000  
  292.50  0.0000E+000  
  293.00  0.0000E+000  
  293.50  0.0000E+000  
  294.00  0.0000E+000  
  294.50  0.0000E+000  
  295.00  0.0000E+000  
  295.50  0.0000E+000  
  296.00  0.0000E+000  
  296.50  0.0000E+000  
  297.00  0.0000E+000  
  297.50  0.0000E+000  
  298.00  0.0000E+000  
  298.50  0.0000E+000  
  299.00  0.0000E+000  
  299.50  0.0000E+000  
  300.00  0.0000E+000  
  300.50  0.0000E+000  
  301.00  6.2962E-005  
  301.50  2.0617E-004  
  302.00  1.9722E-004  
  302.50  1.8865E-005  
  303.00  0.0000E+000  
  303.50  0.0000E+000  
  304.00  0.0000E+000  
  304.50  2.9891E-005  
  305.00  6.8276E-005  
  305.50  5.8198E-005  
  306.00  0.0000E+000  
  306.50  0.0000E+000  
  307.00  0.0000E+000  
  307.50  0.0000E+000  
  308.00  1.6093E-005  
  308.50  3.1451E-005  
  309.00  0.0000E+000  
  309.50  0.0000E+000  
  310.00  0.0000E+000  
  310.50  0.0000E+000  
  311.00  0.0000E+000  
  311.50  0.0000E+000  
  312.00  0.0000E+000  
  312.50  0.0000E+000  
  313.00  0.0000E+000  
  313.50  0.0000E+000  
  314.00  0.0000E+000  
  314.50  0.0000E+000  
  315.00  0.0000E+000  
  315.50  0.0000E+000  
  316.00  0.0000E+000  
  316.50  0.0000E+000  
  317.00  0.0000E+000  
  317.50  2.8315E-005  
  318.00  2.0954E-004  
  318.50  1.8593E-004  
  319.00  0.0000E+000  
  319.50  0.0000E+000  
  320.00  0.0000E+000  
  320.50  5.6671E-006  
  321.00  1.8113E-004  
  321.50  2.2257E-005  
  322.00  0.0000E+000  
  322.50  0.0000E+000  
  323.00  0.0000E+000  
  323.50  0.0000E+000  
  324.00  0.0000E+000  
  324.50  0.0000E+000  
  325.00  0.0000E+000  
  325.50  0.0000E+000  
  326.00  0.0000E+000  
  326.50  0.0000E+000  
  327.00  0.0000E+000  
  327.50  0.0000E+000  
  328.00  0.0000E+000  
  328.50  0.0000E+000  
  329.00  0.0000E+000  
  329.50  0.0000E+000  
  330.00  0.0000E+000  
  330.50  0.0000E+000  
  331.00  0.0000E+000  
  331.50  0.0000E+000  
  332.00  0.0000E+000  
  332.50  1.4141E-004  
  333.00  1.9700E-004  
  333.50  0.0000E+000  
  334.00  0.0000E+000  
  334.50  0.0000E+000  
  335.00  0.0000E+000  
  335.50  0.0000E+000  
  336.00  0.0000E+000  
  336.50  0.0000E+000  
  337.00  0.0000E+000  
  337.50  0.0000E+000  
  338.00  0.0000E+000  
  338.50  0.0000E+000  
  339.00  0.0000E+000  
  339.50  1.1928E-004  
  340.00  5.1953E-004  
  340.50  5.0795E-004  
  341.00  3.2364E-004  
  341.50  5.9924E-005  
  342.00  0.0000E+000  
  342.50  0.0000E+000  
  343.00  0.0000E+000  
  343.50  0.0000E+000  
  344.00  0.0000E+000  
  344.50  0.0000E+000  
  345.00  0.0000E+000  
  345.50  0.0000E+000  
  346.00  0.0000E+000  
  346.50  0.0000E+000  
  347.00  0.0000E+000  
  347.50  0.0000E+000  
  348.00  0.0000E+000  
  348.50  0.0000E+000  
  349.00  0.0000E+000  
  349.50  0.0000E+000  
  350.00  0.0000E+000  
  350.50  0.0000E+000  
  351.00  0.0000E+000  
  351.50  0.0000E+000  
  352.00  0.0000E+000  
  352.50  3.3160E-006  
  353.00  2.4404E-004  
  353.50  5.0296E-004  
  354.00  3.9638E-004  
  354.50  3.3339E-005  
  355.00  0.0000E+000  
  355.50  0.0000E+000  
  356.00  0.0000E+000  
  356.50  0.0000E+000  
  357.00  0.0000E+000  
  357.50  0.0000E+000  
  358.00  0.0000E+000  
  358.50  0.0000E+000  
  359.00  0.0000E+000  
  359.50  1.3770E-004  
  360.00  3.8338E-004  
  360.50  3.3791E-004  
  361.00  4.9558E-004  
  361.50  2.7609E-004  
  362.00  1.6079E-005  
  362.50  0.0000E+000  
  363.00  0.0000E+000  
  363.50  0.0000E+000  
  364.00  0.0000E+000  
  364.50  0.0000E+000  
  365.00  5.7454E-005  
  365.50  5.7085E-006  
  366.00  1.5867E-005  
  366.50  0.0000E+000  
  367.00  0.0000E+000  
  367.50  0.0000E+000  
  368.00  8.6925E-006  
  368.50  6.7406E-005  
  369.00  3.0587E-005  
  369.50  0.0000E+000  
  370.00  0.0000E+000  
  370.50  0.0000E+000  
  371.00  0.0000E+000  
  371.50  0.0000E+000  
  372.00  0.0000E+000  
  372.50  0.0000E+000  
  373.00  0.0000E+000  
  373.50  0.0000E+000  
  374.00  0.0000E+000  
  374.50  0.0000E+000  
  375.00  0.0000E+000  
  375.50  0.0000E+000  
  376.00  0.0000E+000  
  376.50  0.0000E+000  
  377.00  0.0000E+000  
  377.50  0.0000E+000  
  378.00  0.0000E+000  
  378.50  0.0000E+000  
  379.00  0.0000E+000  
  379.50  0.0000E+000  
  380.00  0.0000E+000  
  380.50  0.0000E+000  
  381.00  0.0000E+000  
  381.50  0.0000E+000  
  382.00  0.0000E+000  
  382.50  0.0000E+000  
  383.00  0.0000E+000  
  383.50  0.0000E+000  
  384.00  0.0000E+000  
  384.50  0.0000E+000  
  385.00  0.0000E+000  
  385.50  0.0000E+000  
  386.00  0.0000E+000  
  386.50  0.0000E+000  
  387.00  0.0000E+000  
  387.50  0.0000E+000  
  388.00  0.0000E+000  
  388.50  0.0000E+000  
  389.00  0.0000E+000  
  389.50  0.0000E+000  
  390.00  4.2858E-005  
  390.50  1.1687E-004  
  391.00  2.0241E-005  
  391.50  0.0000E+000  
  392.00  0.0000E+000  
  392.50  6.3989E-005  
  393.00  2.8708E-004  
  393.50  3.6430E-004  
  394.00  2.4004E-004  
  394.50  0.0000E+000  
  395.00  0.0000E+000  
  395.50  0.0000E+000  
  396.00  0.0000E+000  
  396.50  0.0000E+000  
  397.00  0.0000E+000  
  397.50  0.0000E+000  
  398.00  0.0000E+000  
  398.50  0.0000E+000  
  399.00  0.0000E+000  
  399.50  0.0000E+000  
  400.00  0.0000E+000  
  400.50  0.0000E+000  
  401.00  0.0000E+000  
  401.50  2.9688E-005  
  402.00  7.4799E-005  
  402.50  0.0000E+000  
  403.00  0.0000E+000  
  403.50  0.0000E+000  
  404.00  0.0000E+000  
  404.50  0.0000E+000  
  405.00  0.0000E+000  
  405.50  0.0000E+000  
  406.00  0.0000E+000  
  406.50  0.0000E+000  
  407.00  0.0000E+000  
  407.50  0.0000E+000  
  408.00  3.0667E-005  
  408.50  1.1527E-006  
  409.00  0.0000E+000  
  409.50  0.0000E+000  
  410.00  0.0000E+000  
  410.50  0.0000E+000  
  411.00  0.0000E+000  
  411.50  0.0000E+000  
  412.00  0.0000E+000  
  412.50  0.0000E+000  
  413.00  0.0000E+000  
  413.50  3.1325E-005  
  414.00  3.3243E-004  
  414.50  4.8409E-004  
  415.00  4.3881E-004  
  415.50  2.9966E-004  
  416.00  0.0000E+000  
  416.50  0.0000E+000  
  417.00  0.0000E+000  
  417.50  0.0000E+000  
  418.00  0.0000E+000  
  418.50  0.0000E+000  
  419.00  1.1845E-005  
  419.50  1.2516E-004  
  420.00  3.8573E-005  
  420.50  0.0000E+000  
  421.00  0.0000E+000  
  421.50  5.6499E-005  
  422.00  5.2794E-004  
  422.50  8.3468E-004  
  423.00  6.9352E-004  
  423.50  3.2425E-004  
  424.00  1.2316E-004  
  424.50  1.8910E-004  
  425.00  5.5532E-004  
  425.50  7.6325E-004  
  426.00  8.4609E-004  
  426.50  8.5813E-004  
  427.00  7.9133E-004  
  427.50  7.9184E-004  
  428.00  8.6517E-004  
  428.50  7.8585E-004  
  429.00  8.1466E-004  
  429.50  8.0964E-004  
  430.00  6.2465E-004  
  430.50  5.5522E-004  
  431.00  5.2634E-004  
  431.50  7.1796E-004  
  432.00  8.0720E-004  
  432.50  9.8530E-004  
  433.00  8.8435E-004  
  433.50  5.7638E-004  
  434.00  1.6880E-004  
  434.50  1.8938E-004  
  435.00  4.5657E-004  
  435.50  8.1265E-004  
  436.00  1.0957E-003  
  436.50  1.1746E-003  
  437.00  1.0663E-003  
  437.50  1.0108E-003  
  438.00  9.3827E-004  
  438.50  7.5100E-004  
  439.00  5.9630E-004  
  439.50  3.9613E-004  
  440.00  4.9394E-004  
  440.50  5.8944E-004  
  441.00  7.2825E-004  
  441.50  7.4399E-004  
  442.00  6.6599E-004  
  442.50  5.9674E-004  
  443.00  7.3137E-004  
  443.50  7.3044E-004  
  444.00  8.3900E-004  
  444.50  7.6616E-004  
  445.00  7.3825E-004  
  445.50  8.5778E-004  
  446.00  1.0555E-003  
  446.50  1.1372E-003  
  447.00  9.9441E-004  
  447.50  9.8413E-004  
  448.00  8.7015E-004  
  448.50  8.9383E-004  
  449.00  7.9793E-004  
  449.50  6.8278E-004  
  450.00  7.0389E-004  
  450.50  7.6834E-004  
  451.00  5.8576E-004  
  451.50  6.8291E-004  
  452.00  6.2230E-004  
  452.50  5.4112E-004  
  453.00  4.6983E-004  
  453.50  1.4877E-004  
  454.00  1.2089E-006  
  454.50  0.0000E+000  
  455.00  0.0000E+000  
  455.50  0.0000E+000  
  456.00  7.6672E-006  
  456.50  7.1748E-006  
  457.00  0.0000E+000  
  457.50  0.0000E+000  
  458.00  0.0000E+000  
  458.50  0.0000E+000  
  459.00  2.1280E-005  
  459.50  2.2398E-004  
  460.00  3.4697E-004  
  460.50  2.5344E-004  
  461.00  1.0707E-005  
  461.50  0.0000E+000  
  462.00  0.0000E+000  
  462.50  2.4066E-005  
  463.00  2.0861E-004  
  463.50  3.0676E-004  
  464.00  4.6341E-004  
  464.50  3.7348E-004  
  465.00  2.3818E-004  
  465.50  3.5012E-004  
  466.00  1.3196E-004  
  466.50  7.1615E-005  
  467.00  1.0628E-005  
  467.50  0.0000E+000  
  468.00  0.0000E+000  
  468.50  0.0000E+000  
  469.00  0.0000E+000  
  469.50  0.0000E+000  
  470.00  0.0000E+000  
  470.50  0.0000E+000  
  471.00  0.0000E+000  
  471.50  0.0000E+000  
  472.00  0.0000E+000  
  472.50  0.0000E+000  
  473.00  4.0800E-005  
  473.50  1.8232E-004  
  474.00  2.8407E-004  
  474.50  2.8949E-004  
  475.00  1.3276E-004  
  475.50  6.6065E-006  
  476.00  0.0000E+000  
  476.50  0.0000E+000  
  477.00  0.0000E+000  
  477.50  7.5188E-005  
  478.00  1.5081E-004  
  478.50  1.5098E-004  
  479.00  1.1690E-004  
  479.50  3.2572E-006  
  480.00  0.0000E+000  
  480.50  0.0000E+000  
  481.00  0.0000E+000  
  481.50  0.0000E+000  
  482.00  6.4236E-005  
  482.50  1.9231E-004  
  483.00  2.6511E-004  
  483.50  1.8970E-004  
  484.00  1.1808E-004  
  484.50  3.6949E-005  
  485.00  0.0000E+000  
  485.50  0.0000E+000  
  486.00  0.0000E+000  
  486.50  5.3394E-005  
  487.00  1.2898E-005  
  487.50  0.0000E+000  
  488.00  0.0000E+000  
  488.50  1.4947E-004  
  489.00  3.1578E-004  
  489.50  4.9150E-004  
  490.00  5.1900E-004  
  490.50  5.1134E-004  
  491.00  4.8199E-004  
  491.50  5.2904E-004  
  492.00  5.0380E-004  
  492.50  4.3282E-004  
  493.00  4.5601E-004  
  493.50  5.4155E-004  
  494.00  7.3752E-004  
  494.50  8.8820E-004  
  495.00  9.2755E-004  
  495.50  9.1682E-004  
  496.00  8.4039E-004  
  496.50  9.3942E-004  
  497.00  1.1311E-003  
  497.50  1.3039E-003  
  498.00  1.4188E-003  
  498.50  1.2507E-003  
  499.00  1.1697E-003  
  499.50  1.1442E-003  
  500.00  1.2352E-003  
  500.50  1.4395E-003  
  501.00  1.5831E-003  
  501.50  1.6106E-003  
  502.00  1.7042E-003  
  502.50  1.8029E-003  
  503.00  1.9960E-003  
  503.50  2.0558E-003  
  504.00  2.0151E-003  
  504.50  2.0739E-003  
  505.00  2.2279E-003  
  505.50  2.4228E-003  
  506.00  2.6270E-003  
  506.50  2.6665E-003  
  507.00  2.8620E-003  
  507.50  3.0143E-003  
  508.00  3.2254E-003  
  508.50  3.3628E-003  
  509.00  3.3953E-003  
  509.50  3.3796E-003  
  510.00  3.4260E-003  
  510.50  3.5638E-003  
  511.00  3.8241E-003  
  511.50  4.1365E-003  
  512.00  4.3253E-003  
  512.50  4.4419E-003  
  513.00  4.5351E-003  
  513.50  4.5878E-003  
  514.00  4.6219E-003  
  514.50  4.6141E-003  
  515.00  4.6987E-003  
  515.50  5.0392E-003  
  516.00  5.3923E-003  
  516.50  5.6003E-003  
  517.00  5.6176E-003  
  517.50  5.5654E-003  
  518.00  5.5253E-003  
  518.50  5.6221E-003  
  519.00  5.6576E-003  
  519.50  5.7500E-003  
  520.00  5.8616E-003  
  520.50  6.1007E-003  
  521.00  6.3848E-003  
  521.50  6.6471E-003  
  522.00  6.7365E-003  
  522.50  6.7835E-003  
  523.00  6.7492E-003  
  523.50  6.9587E-003  
  524.00  7.1540E-003  
  524.50  7.2844E-003  
  525.00  7.3751E-003  
  525.50  7.3719E-003  
  526.00  7.5491E-003  
  526.50  7.7696E-003  
  527.00  7.9158E-003  
  527.50  8.1025E-003  
  528.00  8.2338E-003  
  528.50  8.4760E-003  
  529.00  8.6939E-003  
  529.50  8.8553E-003  
  530.00  8.9260E-003  
  530.50  8.8974E-003  
  531.00  9.0532E-003  
  531.50  9.1226E-003  
  532.00  9.1881E-003  
  532.50  9.2311E-003  
  533.00  9.3942E-003  
  533.50  9.6178E-003  
  534.00  9.8201E-003  
  534.50  9.8714E-003  
  535.00  9.8728E-003  
  535.50  9.8898E-003  
  536.00  9.7373E-003  
  536.50  9.7408E-003  
  537.00  9.9040E-003  
  537.50  1.0066E-002  
  538.00  1.0202E-002  
  538.50  1.0374E-002  
  539.00  1.0649E-002  
  539.50  1.0966E-002  
  540.00  1.1104E-002  
  540.50  1.1147E-002  
  541.00  1.1215E-002  
  541.50  1.1389E-002  
  542.00  1.1545E-002  
  542.50  1.1708E-002  
  543.00  1.1803E-002  
  543.50  1.1902E-002  
  544.00  1.2040E-002  
  544.50  1.2117E-002  
  545.00  1.2238E-002  
  545.50  1.2425E-002  
  546.00  1.2597E-002  
  546.50  1.2848E-002  
  547.00  1.2989E-002  
  547.50  1.3227E-002  
  548.00  1.3399E-002  
  548.50  1.3642E-002  
  549.00  1.3834E-002  
  549.50  1.4135E-002  
  550.00  1.4397E-002  
  550.50  1.4484E-002  
  551.00  1.4535E-002  
  551.50  1.4643E-002  
  552.00  1.4924E-002  
  552.50  1.5161E-002  
  553.00  1.5286E-002  
  553.50  1.5519E-002  
  554.00  1.5823E-002  
  554.50  1.6086E-002  
  555.00  1.6239E-002  
  555.50  1.6322E-002  
  556.00  1.6352E-002  
  556.50  1.6661E-002  
  557.00  1.7029E-002  
  557.50  1.7377E-002  
  558.00  1.7613E-002  
  558.50  1.7845E-002  
  559.00  1.8184E-002  
  559.50  1.8665E-002  
  560.00  1.9066E-002  
  560.50  1.9387E-002  
  561.00  1.9503E-002  
  561.50  1.9680E-002  
  562.00  2.0106E-002  
  562.50  2.0740E-002  
  563.00  2.1310E-002  
  563.50  2.1633E-002  
  564.00  2.1725E-002  
  564.50  2.1882E-002  
  565.00  2.2224E-002  
  565.50  2.2806E-002  
  566.00  2.3460E-002  
  566.50  2.3921E-002  
  567.00  2.4231E-002  
  567.50  2.4461E-002  
  568.00  2.4793E-002  
  568.50  2.5218E-002  
  569.00  2.5700E-002  
  569.50  2.6092E-002  
  570.00  2.6559E-002  
  570.50  2.7224E-002  
  571.00  2.7916E-002  
  571.50  2.8346E-002  
  572.00  2.8661E-002  
  572.50  2.9139E-002  
  573.00  2.9929E-002  
  573.50  3.0805E-002  
  574.00  3.1521E-002  
  574.50  3.2111E-002  
  575.00  3.2506E-002  
  575.50  3.2781E-002  
  576.00  3.3259E-002  
  576.50  3.4063E-002  
  577.00  3.4930E-002  
  577.50  3.5696E-002  
  578.00  3.6119E-002  
  578.50  3.6628E-002  
  579.00  3.7053E-002  
  579.50  3.7781E-002  
  580.00  3.8621E-002  
  580.50  3.9416E-002  
  581.00  4.0188E-002  
  581.50  4.0617E-002  
  582.00  4.1218E-002  
  582.50  4.1873E-002  
  583.00  4.2904E-002  
  583.50  4.3837E-002  
  584.00  4.4582E-002  
  584.50  4.5001E-002  
  585.00  4.5457E-002  
  585.50  4.6232E-002  
  586.00  4.7245E-002  
  586.50  4.8183E-002  
  587.00  4.9067E-002  
  587.50  4.9995E-002  
  588.00  5.0619E-002  
  588.50  5.1222E-002  
  589.00  5.1651E-002  
  589.50  5.2328E-002  
  590.00  5.3139E-002  
  590.50  5.4056E-002  
  591.00  5.5001E-002  
  591.50  5.5880E-002  
  592.00  5.6493E-002  
  592.50  5.6961E-002  
  593.00  5.7559E-002  
  593.50  5.8365E-002  
  594.00  5.9497E-002  
  594.50  6.0388E-002  
  595.00  6.1028E-002  
  595.50  6.1437E-002  
  596.00  6.2226E-002  
  596.50  6.3160E-002  
  597.00  6.4026E-002  
  597.50  6.4678E-002  
  598.00  6.5239E-002  
  598.50  6.5832E-002  
  599.00  6.6550E-002  
  599.50  6.7119E-002  
  600.00  6.7769E-002  
  600.50  6.8446E-002  
  601.00  6.8995E-002  
  601.50  6.9568E-002  
  602.00  6.9947E-002  
  602.50  7.0424E-002  
  603.00  7.0781E-002  
  603.50  7.1241E-002  
  604.00  7.1792E-002  
  604.50  7.2309E-002  
  605.00  7.2778E-002  
  605.50  7.3080E-002  
  606.00  7.3580E-002  
  606.50  7.4404E-002  
  607.00  7.5148E-002  
  607.50  7.5675E-002  
  608.00  7.5815E-002  
  608.50  7.6040E-002  
  609.00  7.6445E-002  
  609.50  7.6864E-002  
  610.00  7.7376E-002  
  610.50  7.7430E-002  
  611.00  7.7425E-002  
  611.50  7.7505E-002  
  612.00  7.7867E-002  
  612.50  7.7979E-002  
  613.00  7.7814E-002  
  613.50  7.7592E-002  
  614.00  7.7848E-002  
  614.50  7.8218E-002  
  615.00  7.8394E-002  
  615.50  7.8429E-002  
  616.00  7.8342E-002  
  616.50  7.8305E-002  
  617.00  7.8319E-002  
  617.50  7.8339E-002  
  618.00  7.8534E-002  
  618.50  7.8651E-002  
  619.00  7.8956E-002  
  619.50  7.9218E-002  
  620.00  7.9183E-002  
  620.50  7.8824E-002  
  621.00  7.8725E-002  
  621.50  7.8889E-002  
  622.00  7.8951E-002  
  622.50  7.8506E-002  
  623.00  7.7908E-002  
  623.50  7.7740E-002  
  624.00  7.7622E-002  
  624.50  7.7731E-002  
  625.00  7.7816E-002  
  625.50  7.7496E-002  
  626.00  7.7013E-002  
  626.50  7.6580E-002  
  627.00  7.6228E-002  
  627.50  7.5722E-002  
  628.00  7.5319E-002  
  628.50  7.5496E-002  
  629.00  7.5581E-002  
  629.50  7.5221E-002  
  630.00  7.4760E-002  
  630.50  7.4632E-002  
  631.00  7.4548E-002  
  631.50  7.4355E-002  
  632.00  7.4104E-002  
  632.50  7.3642E-002  
  633.00  7.2880E-002  
  633.50  7.2303E-002  
  634.00  7.1959E-002  
  634.50  7.1879E-002  
  635.00  7.1564E-002  
  635.50  7.1187E-002  
  636.00  7.0976E-002  
  636.50  7.0641E-002  
  637.00  7.0308E-002  
  637.50  6.9640E-002  
  638.00  6.9016E-002  
  638.50  6.8207E-002  
  639.00  6.7646E-002  
  639.50  6.7310E-002  
  640.00  6.7087E-002  
  640.50  6.6766E-002  
  641.00  6.6007E-002  
  641.50  6.5507E-002  
  642.00  6.5071E-002  
  642.50  6.5010E-002  
  643.00  6.4788E-002  
  643.50  6.4625E-002  
  644.00  6.4094E-002  
  644.50  6.3528E-002  
  645.00  6.2671E-002  
  645.50  6.1959E-002  
  646.00  6.1369E-002  
  646.50  6.0973E-002  
  647.00  6.0622E-002  
  647.50  6.0385E-002  
  648.00  5.9876E-002  
  648.50  5.9314E-002  
  649.00  5.8350E-002  
  649.50  5.7919E-002  
  650.00  5.7448E-002  
  650.50  5.7477E-002  
  651.00  5.7190E-002  
  651.50  5.6785E-002  
  652.00  5.6188E-002  
  652.50  5.5382E-002  
  653.00  5.5057E-002  
  653.50  5.4462E-002  
  654.00  5.4138E-002  
  654.50  5.3290E-002  
  655.00  5.2550E-002  
  655.50  5.1633E-002  
  656.00  5.0919E-002  
  656.50  5.0483E-002  
  657.00  5.0135E-002  
  657.50  4.9934E-002  
  658.00  4.9546E-002  
  658.50  4.8935E-002  
  659.00  4.8462E-002  
  659.50  4.8126E-002  
  660.00  4.7761E-002  
  660.50  4.7119E-002  
  661.00  4.6409E-002  
  661.50  4.5968E-002  
  662.00  4.5561E-002  
  662.50  4.5231E-002  
  663.00  4.4961E-002  
  663.50  4.4180E-002  
  664.00  4.3094E-002  
  664.50  4.2082E-002  
  665.00  4.1574E-002  
  665.50  4.1171E-002  
  666.00  4.0483E-002  
  666.50  3.9809E-002  
  667.00  3.9413E-002  
  667.50  3.9328E-002  
  668.00  3.9287E-002  
  668.50  3.8791E-002  
  669.00  3.8230E-002  
  669.50  3.7503E-002  
  670.00  3.7177E-002  
  670.50  3.6829E-002  
  671.00  3.6241E-002  
  671.50  3.5439E-002  
  672.00  3.4821E-002  
  672.50  3.4584E-002  
  673.00  3.4213E-002  
  673.50  3.3727E-002  
  674.00  3.3236E-002  
  674.50  3.2964E-002  
  675.00  3.2486E-002  
  675.50  3.2070E-002  
  676.00  3.1605E-002  
  676.50  3.1188E-002  
  677.00  3.0821E-002  
  677.50  3.0600E-002  
  678.00  3.0401E-002  
  678.50  3.0119E-002  
  679.00  2.9623E-002  
  679.50  2.8996E-002  
  680.00  2.8410E-002  
  680.50  2.7697E-002  
  681.00  2.7065E-002  
  681.50  2.6311E-002  
  682.00  2.5782E-002  
  682.50  2.5761E-002  
  683.00  2.5932E-002  
  683.50  2.5980E-002  
  684.00  2.5684E-002  
  684.50  2.5179E-002  
  685.00  2.4540E-002  
  685.50  2.4231E-002  
  686.00  2.4017E-002  
  686.50  2.3755E-002  
  687.00  2.3412E-002  
  687.50  2.3056E-002  
  688.00  2.2890E-002  
  688.50  2.2473E-002  
  689.00  2.1999E-002  
  689.50  2.1472E-002  
  690.00  2.0913E-002  
  690.50  2.0501E-002  
  691.00  2.0086E-002  
  691.50  1.9821E-002  
  692.00  1.9759E-002  
  692.50  2.0070E-002  
  693.00  1.9926E-002  
  693.50  1.9549E-002  
  694.00  1.9219E-002  
  694.50  1.9383E-002  
  695.00  1.9182E-002  
  695.50  1.8843E-002  
  696.00  1.8366E-002  
  696.50  1.8009E-002  
  697.00  1.7391E-002  
  697.50  1.7034E-002  
  698.00  1.6935E-002  
  698.50  1.6721E-002  
  699.00  1.6287E-002  
  699.50  1.6058E-002  
  700.00  1.5715E-002  
  700.50  1.5905E-002  
  701.00  1.5892E-002  
  701.50  1.5669E-002  
  702.00  1.4813E-002  
  702.50  1.4153E-002  
  703.00  1.3637E-002  
  703.50  1.3127E-002  
  704.00  1.3023E-002  
  704.50  1.3333E-002  
  705.00  1.3464E-002  
  705.50  1.3131E-002  
  706.00  1.2686E-002  
  706.50  1.2494E-002  
  707.00  1.2438E-002  
  707.50  1.2489E-002  
  708.00  1.2344E-002  
  708.50  1.1948E-002  
  709.00  1.1390E-002  
  709.50  1.1401E-002  
  710.00  1.1678E-002  
  710.50  1.1628E-002  
  711.00  1.1345E-002  
  711.50  1.0942E-002  
  712.00  1.0809E-002  
  712.50  1.0465E-002  
  713.00  1.0315E-002  
  713.50  9.9695E-003  
  714.00  9.6891E-003  
  714.50  9.6735E-003  
  715.00  9.5243E-003  
  715.50  9.2259E-003  
  716.00  9.0846E-003  
  716.50  9.1379E-003  
  717.00  9.0226E-003  
  717.50  9.0363E-003  
  718.00  8.9137E-003  
  718.50  8.5170E-003  
  719.00  8.1323E-003  
  719.50  8.3111E-003  
  720.00  8.5326E-003  
  720.50  8.5546E-003  
  721.00  8.3547E-003  
  721.50  7.7586E-003  
  722.00  7.3707E-003  
  722.50  7.3365E-003  
  723.00  7.8981E-003  
  723.50  7.9888E-003  
  724.00  7.6681E-003  
  724.50  7.3780E-003  
  725.00  7.1779E-003  
  725.50  6.6562E-003  
  726.00  6.4108E-003  
  726.50  6.8879E-003  
  727.00  7.3684E-003  
  727.50  7.2160E-003  
  728.00  6.4829E-003  
  728.50  5.9170E-003  
  729.00  5.6277E-003  
  729.50  5.2178E-003  
  730.00  4.6438E-003  
  730.50  4.4316E-003  
  731.00  5.0151E-003  
  731.50  5.6610E-003  
  732.00  6.0238E-003  
  732.50  6.0659E-003  
  733.00  6.1274E-003  
  733.50  6.0485E-003  
  734.00  6.0414E-003  
  734.50  6.0116E-003  
  735.00  5.7714E-003  
  735.50  5.3842E-003  
  736.00  5.0832E-003  
  736.50  4.9423E-003  
  737.00  4.7678E-003  
  737.50  4.6595E-003  
  738.00  4.4629E-003  
  738.50  4.2798E-003  
  739.00  4.0696E-003  
  739.50  3.9995E-003  
  740.00  3.9868E-003  
  740.50  3.8608E-003  
  741.00  3.7016E-003  
  741.50  3.9285E-003  
  742.00  3.6860E-003  
  742.50  3.3081E-003  
  743.00  2.9457E-003  
  743.50  3.2726E-003  
  744.00  3.6928E-003  
  744.50  3.7592E-003  
  745.00  3.7574E-003  
  745.50  3.8398E-003  
  746.00  3.8621E-003  
  746.50  3.4833E-003  
  747.00  3.4267E-003  
  747.50  3.5236E-003  
  748.00  3.0101E-003  
  748.50  2.2269E-003  
  749.00  2.2184E-003  
  749.50  2.5199E-003  
  750.00  2.7366E-003  
  750.50  2.8657E-003  
  751.00  3.8308E-003  
  751.50  3.6515E-003  
  752.00  3.1687E-003  
  752.50  2.4525E-003  
  753.00  2.4405E-003  
  753.50  2.8027E-003  
  754.00  2.6900E-003  
  754.50  2.8691E-003  
  755.00  2.7320E-003  
  755.50  3.0680E-003  
  756.00  2.9476E-003  
  756.50  2.6978E-003  
  757.00  2.1380E-003  
  757.50  2.1157E-003  
  758.00  2.3435E-003  
  758.50  2.6765E-003  
  759.00  3.0600E-003  
  759.50  3.0350E-003  
  760.00  2.5775E-003  
  760.50  2.1107E-003  
  761.00  1.8119E-003  
  761.50  1.3500E-003  
  762.00  1.4097E-003  
  762.50  1.5294E-003  
  763.00  1.7370E-003  
  763.50  2.2702E-003  
  764.00  2.7326E-003  
  764.50  2.7907E-003  
  765.00  2.2322E-003  
  765.50  1.6868E-003  
  766.00  1.4031E-003  
  766.50  1.5570E-003  
  767.00  6.9957E-004  
  767.50  0.0000E+000  
  768.00  0.0000E+000  
  768.50  1.2732E-004  
  769.00  8.7972E-004  
  769.50  1.4058E-003  
  770.00  1.6428E-003  
  770.50  2.7159E-003  
  771.00  2.6565E-003  
  771.50  2.4981E-003  
  772.00  1.8338E-003  
  772.50  1.4237E-003  
  773.00  9.2388E-004  
  773.50  9.6017E-004  
  774.00  9.8533E-004  
  774.50  1.3861E-003  
  775.00  1.2468E-003  
  775.50  1.0574E-003  
  776.00  1.1467E-003  
  776.50  1.2939E-003  
  777.00  1.1201E-003  
  777.50  4.8715E-004  
  778.00  4.5227E-004  
  778.50  8.2001E-004  
  779.00  9.4436E-004  
  779.50  4.7259E-004  
  780.00  2.4849E-004  
  780.50  7.6805E-004  
  781.00  1.2296E-003  
  781.50  1.0328E-003  
  782.00  3.2517E-004  
  782.50  3.4428E-004  
  783.00  5.7457E-004  
  783.50  6.6611E-004  
  784.00  9.9673E-004  
  784.50  1.9805E-003  
  785.00  2.0265E-003  
  785.50  7.8219E-004  
  786.00  0.0000E+000  
  786.50  3.5579E-004  
  787.00  1.1296E-003  
  787.50  1.2349E-003  
  788.00  5.2992E-004  
  788.50  0.0000E+000  
  789.00  0.0000E+000  
  789.50  0.0000E+000  
  790.00  4.7458E-004  
  790.50  8.2550E-004  
  791.00  0.0000E+000  
  791.50  0.0000E+000  
  792.00  0.0000E+000  
  792.50  0.0000E+000  
  793.00  6.0628E-004  
  793.50  1.7520E-003  
  794.00  2.2312E-003  
  794.50  2.2047E-003  
  795.00  2.1793E-003  
  795.50  1.5971E-003  
  796.00  7.9257E-004  
  796.50  1.2463E-004  
  797.00  1.0806E-006  
  797.50  1.9732E-005  
  798.00  2.4937E-004  
  798.50  7.8351E-005  
  799.00  3.8880E-004  
  799.50  1.2737E-003  
  800.00  1.0594E-003  
  800.50  7.0542E-004  
  801.00  4.6648E-004  
  801.50  7.4945E-004  
  802.00  4.0903E-004  
  802.50  0.0000E+000  
  803.00  0.0000E+000  
  803.50  0.0000E+000  
  804.00  0.0000E+000  
  804.50  0.0000E+000  
  805.00  0.0000E+000  
  805.50  0.0000E+000  
  806.00  0.0000E+000  
  806.50  0.0000E+000  
  807.00  0.0000E+000  
  807.50  3.5315E-004  
  808.00  8.5847E-005  
  808.50  5.9305E-004  
  809.00  8.6900E-004  
  809.50  6.6256E-004  
  810.00  5.2973E-004  
  810.50  1.1574E-003  
  811.00  1.0089E-003  
  811.50  1.0365E-004  
  812.00  0.0000E+000  
  812.50  0.0000E+000  
  813.00  0.0000E+000  
  813.50  0.0000E+000  
  814.00  0.0000E+000  
  814.50  0.0000E+000  
  815.00  0.0000E+000  
  815.50  0.0000E+000  
  816.00  0.0000E+000  
  816.50  0.0000E+000  
  817.00  0.0000E+000  
  817.50  4.2318E-006  
  818.00  3.6395E-004  
  818.50  1.3258E-003  
  819.00  1.4043E-003  
  819.50  7.0607E-004  
  820.00  1.3121E-006  
  820.50  0.0000E+000  
  821.00  0.0000E+000  
  821.50  0.0000E+000  
  822.00  0.0000E+000  
  822.50  0.0000E+000  
  823.00  0.0000E+000  
  823.50  1.6212E-004  
  824.00  1.2695E-003  
  824.50  4.6374E-004  
  825.00  7.9525E-005  
  825.50  2.0298E-004  
  826.00  0.0000E+000  
  826.50  0.0000E+000  
  827.00  0.0000E+000  
  827.50  0.0000E+000  
  828.00  0.0000E+000  
  828.50  0.0000E+000  
  829.00  5.1552E-004  
  829.50  7.5887E-004  
  830.00  2.9548E-006  
  830.50  0.0000E+000  
  831.00  0.0000E+000  
  831.50  0.0000E+000  
  832.00  0.0000E+000  
  832.50  0.0000E+000  
  833.00  0.0000E+000  
  833.50  1.1868E-005  
  834.00  0.0000E+000  
  834.50  0.0000E+000  
  835.00  0.0000E+000  
  835.50  0.0000E+000  
  836.00  0.0000E+000  
  836.50  0.0000E+000  
  837.00  0.0000E+000  
  837.50  0.0000E+000  
  838.00  2.7299E-004  
  838.50  1.0349E-003  
  839.00  4.8241E-004  
  839.50  3.9324E-004  
  840.00  1.7946E-005  
  840.50  0.0000E+000  
  841.00  0.0000E+000  
  841.50  0.0000E+000  
  842.00  0.0000E+000  
  842.50  0.0000E+000  
  843.00  0.0000E+000  
  843.50  0.0000E+000  
  844.00  0.0000E+000  
  844.50  0.0000E+000  
  845.00  0.0000E+000  
  845.50  0.0000E+000  
  846.00  1.2621E-003  
  846.50  8.0725E-004  
  847.00  0.0000E+000  
  847.50  0.0000E+000  
  848.00  0.0000E+000  
  848.50  0.0000E+000  
  849.00  0.0000E+000  
  849.50  0.0000E+000  
  850.00  1.6675E-003  
  850.50  1.3551E-003  
  851.00  0.0000E+000  
  851.50  0.0000E+000  
  852.00  0.0000E+000  
  852.50  6.3607E-006  
  853.00  3.3773E-005  
  853.50  9.7365E-005  
  854.00  6.9173E-004  
  854.50  1.0902E-003  
  855.00  1.3939E-003  
  855.50  1.8955E-003  
  856.00  1.6222E-003  
  856.50  1.0726E-003  
  857.00  1.1072E-003  
  857.50  1.7555E-003  
  858.00  8.4384E-006  
  858.50  0.0000E+000  
  859.00  2.6935E-004  
  859.50  8.3861E-004  
  860.00  1.5603E-003  
  860.50  2.7425E-003  
  861.00  1.9501E-003  
  861.50  1.4230E-003  
  862.00  1.0088E-003  
  862.50  9.3945E-004  
  863.00  1.2938E-005  
  863.50  0.0000E+000  
  864.00  0.0000E+000  
  864.50  0.0000E+000  
  865.00  0.0000E+000  
  865.50  0.0000E+000  
  866.00  0.0000E+000  
  866.50  0.0000E+000  
  867.00  0.0000E+000  
  867.50  0.0000E+000  
  868.00  0.0000E+000  
  868.50  9.1132E-005  
  869.00  2.5687E-003  
  869.50  3.2789E-004  
  870.00  0.0000E+000  
  870.50  0.0000E+000  
  871.00  0.0000E+000  
  871.50  0.0000E+000  
  872.00  0.0000E+000  
  872.50  0.0000E+000  
  873.00  1.2094E-004  
  873.50  3.0324E-003  
  874.00  3.2542E-003  
  874.50  1.2712E-003  
  875.00  0.0000E+000  
  875.50  0.0000E+000  
  876.00  0.0000E+000  
  876.50  0.0000E+000  
  877.00  0.0000E+000  
  877.50  4.8973E-004  
  878.00  4.5651E-003  
  878.50  3.7865E-003  
  879.00  7.9981E-004  
  879.50  0.0000E+000  
  880.00  0.0000E+000  
  880.50  0.0000E+000  
  881.00  0.0000E+000  
  881.50  0.0000E+000  
  882.00  0.0000E+000  
  882.50  9.3858E-004  
  883.00  2.0542E-003  
  883.50  0.0000E+000  
  884.00  0.0000E+000  
  884.50  0.0000E+000  
  885.00  0.0000E+000  
  885.50  0.0000E+000  
  886.00  0.0000E+000  
  886.50  0.0000E+000  
  887.00  0.0000E+000  
  887.50  0.0000E+000  
  888.00  4.0150E-004  
  888.50  1.4742E-003  
  889.00  0.0000E+000  
  889.50  0.0000E+000  
  890.00  4.5149E-005  
  890.50  6.9829E-005  
  891.00  0.0000E+000  
  891.50  0.0000E+000  
  892.00  2.2809E-003  
  892.50  2.0462E-003  
  893.00  3.1093E-004  
  893.50  2.1498E-003  
  894.00  3.3748E-003  
  894.50  1.6818E-003  
  895.00  0.0000E+000  
  895.50  0.0000E+000  
  896.00  0.0000E+000  
  896.50  0.0000E+000  
  897.00  0.0000E+000  
  897.50  0.0000E+000  
  898.00  0.0000E+000  
  898.50  3.1905E-004  
  899.00  3.8922E-003  
  899.50  8.5867E-005  
