
# From lspdd.org
# 
# Name: LED-Lot2-L2 QCPassed A19 -
# Indice spectral Valeur 
# MSI 0.06 
# SLI 0.19 
# IPI 0.83 
# Pourcentage de bleu 2.4 
# Caractéristique Valeur 
# CCT calculée (K) 1520 
# CCT du fabricant (K) 1500 
# Tension (V) 100 
# Puissance (W) 7.0 
# Efficacité lumineuse (Lum/W) ND 
#
# Image: '/app/system/img_1s/2788/medium_image1.JPG?1633620763'
# 

  273.00  0.0000E+000  
  273.50  0.0000E+000  
  274.00  0.0000E+000  
  274.50  0.0000E+000  
  275.00  0.0000E+000  
  275.50  0.0000E+000  
  276.00  0.0000E+000  
  276.50  0.0000E+000  
  277.00  0.0000E+000  
  277.50  0.0000E+000  
  278.00  0.0000E+000  
  278.50  0.0000E+000  
  279.00  0.0000E+000  
  279.50  0.0000E+000  
  280.00  0.0000E+000  
  280.50  0.0000E+000  
  281.00  0.0000E+000  
  281.50  0.0000E+000  
  282.00  0.0000E+000  
  282.50  0.0000E+000  
  283.00  0.0000E+000  
  283.50  0.0000E+000  
  284.00  0.0000E+000  
  284.50  0.0000E+000  
  285.00  0.0000E+000  
  285.50  0.0000E+000  
  286.00  0.0000E+000  
  286.50  0.0000E+000  
  287.00  0.0000E+000  
  287.50  0.0000E+000  
  288.00  0.0000E+000  
  288.50  0.0000E+000  
  289.00  0.0000E+000  
  289.50  0.0000E+000  
  290.00  0.0000E+000  
  290.50  0.0000E+000  
  291.00  0.0000E+000  
  291.50  0.0000E+000  
  292.00  0.0000E+000  
  292.50  0.0000E+000  
  293.00  0.0000E+000  
  293.50  0.0000E+000  
  294.00  0.0000E+000  
  294.50  0.0000E+000  
  295.00  0.0000E+000  
  295.50  0.0000E+000  
  296.00  0.0000E+000  
  296.50  0.0000E+000  
  297.00  0.0000E+000  
  297.50  0.0000E+000  
  298.00  0.0000E+000  
  298.50  0.0000E+000  
  299.00  0.0000E+000  
  299.50  0.0000E+000  
  300.00  3.4365E-005  
  300.50  1.5237E-004  
  301.00  2.6946E-004  
  301.50  2.0040E-004  
  302.00  1.7568E-004  
  302.50  3.4296E-005  
  303.00  0.0000E+000  
  303.50  0.0000E+000  
  304.00  0.0000E+000  
  304.50  0.0000E+000  
  305.00  0.0000E+000  
  305.50  0.0000E+000  
  306.00  0.0000E+000  
  306.50  0.0000E+000  
  307.00  0.0000E+000  
  307.50  0.0000E+000  
  308.00  8.4705E-006  
  308.50  7.8130E-005  
  309.00  2.8234E-004  
  309.50  5.0719E-004  
  310.00  4.6209E-004  
  310.50  3.5843E-004  
  311.00  1.2590E-004  
  311.50  0.0000E+000  
  312.00  0.0000E+000  
  312.50  0.0000E+000  
  313.00  0.0000E+000  
  313.50  0.0000E+000  
  314.00  0.0000E+000  
  314.50  0.0000E+000  
  315.00  0.0000E+000  
  315.50  1.6653E-004  
  316.00  4.8339E-004  
  316.50  3.9915E-004  
  317.00  5.5936E-005  
  317.50  0.0000E+000  
  318.00  0.0000E+000  
  318.50  0.0000E+000  
  319.00  0.0000E+000  
  319.50  0.0000E+000  
  320.00  0.0000E+000  
  320.50  0.0000E+000  
  321.00  0.0000E+000  
  321.50  0.0000E+000  
  322.00  0.0000E+000  
  322.50  0.0000E+000  
  323.00  0.0000E+000  
  323.50  0.0000E+000  
  324.00  0.0000E+000  
  324.50  0.0000E+000  
  325.00  0.0000E+000  
  325.50  0.0000E+000  
  326.00  0.0000E+000  
  326.50  0.0000E+000  
  327.00  0.0000E+000  
  327.50  0.0000E+000  
  328.00  0.0000E+000  
  328.50  0.0000E+000  
  329.00  0.0000E+000  
  329.50  0.0000E+000  
  330.00  0.0000E+000  
  330.50  0.0000E+000  
  331.00  0.0000E+000  
  331.50  0.0000E+000  
  332.00  0.0000E+000  
  332.50  0.0000E+000  
  333.00  0.0000E+000  
  333.50  0.0000E+000  
  334.00  0.0000E+000  
  334.50  0.0000E+000  
  335.00  6.8715E-005  
  335.50  3.7271E-004  
  336.00  3.8695E-004  
  336.50  1.3138E-004  
  337.00  0.0000E+000  
  337.50  0.0000E+000  
  338.00  0.0000E+000  
  338.50  0.0000E+000  
  339.00  0.0000E+000  
  339.50  5.5235E-005  
  340.00  2.5937E-004  
  340.50  3.3854E-004  
  341.00  3.0150E-004  
  341.50  1.0043E-004  
  342.00  2.8695E-005  
  342.50  0.0000E+000  
  343.00  0.0000E+000  
  343.50  0.0000E+000  
  344.00  0.0000E+000  
  344.50  0.0000E+000  
  345.00  0.0000E+000  
  345.50  0.0000E+000  
  346.00  0.0000E+000  
  346.50  0.0000E+000  
  347.00  0.0000E+000  
  347.50  0.0000E+000  
  348.00  0.0000E+000  
  348.50  0.0000E+000  
  349.00  0.0000E+000  
  349.50  0.0000E+000  
  350.00  0.0000E+000  
  350.50  0.0000E+000  
  351.00  0.0000E+000  
  351.50  0.0000E+000  
  352.00  0.0000E+000  
  352.50  0.0000E+000  
  353.00  6.3975E-005  
  353.50  3.1744E-004  
  354.00  3.5541E-004  
  354.50  1.8411E-004  
  355.00  2.8688E-005  
  355.50  9.0958E-005  
  356.00  3.3624E-004  
  356.50  5.8385E-004  
  357.00  3.1789E-004  
  357.50  0.0000E+000  
  358.00  0.0000E+000  
  358.50  0.0000E+000  
  359.00  0.0000E+000  
  359.50  0.0000E+000  
  360.00  1.7403E-004  
  360.50  7.9419E-005  
  361.00  1.8072E-004  
  361.50  2.1794E-004  
  362.00  4.7254E-005  
  362.50  7.9024E-006  
  363.00  0.0000E+000  
  363.50  3.2873E-005  
  364.00  1.1888E-004  
  364.50  5.8346E-005  
  365.00  2.1564E-004  
  365.50  2.2329E-004  
  366.00  1.0302E-004  
  366.50  8.0526E-005  
  367.00  0.0000E+000  
  367.50  0.0000E+000  
  368.00  2.2744E-004  
  368.50  2.2556E-004  
  369.00  1.8181E-004  
  369.50  3.3562E-005  
  370.00  0.0000E+000  
  370.50  0.0000E+000  
  371.00  0.0000E+000  
  371.50  0.0000E+000  
  372.00  0.0000E+000  
  372.50  0.0000E+000  
  373.00  0.0000E+000  
  373.50  0.0000E+000  
  374.00  0.0000E+000  
  374.50  0.0000E+000  
  375.00  0.0000E+000  
  375.50  0.0000E+000  
  376.00  0.0000E+000  
  376.50  0.0000E+000  
  377.00  0.0000E+000  
  377.50  0.0000E+000  
  378.00  0.0000E+000  
  378.50  0.0000E+000  
  379.00  0.0000E+000  
  379.50  4.6562E-005  
  380.00  0.0000E+000  
  380.50  0.0000E+000  
  381.00  0.0000E+000  
  381.50  0.0000E+000  
  382.00  0.0000E+000  
  382.50  0.0000E+000  
  383.00  0.0000E+000  
  383.50  0.0000E+000  
  384.00  0.0000E+000  
  384.50  0.0000E+000  
  385.00  0.0000E+000  
  385.50  0.0000E+000  
  386.00  0.0000E+000  
  386.50  0.0000E+000  
  387.00  0.0000E+000  
  387.50  0.0000E+000  
  388.00  0.0000E+000  
  388.50  0.0000E+000  
  389.00  0.0000E+000  
  389.50  5.4071E-005  
  390.00  3.2088E-004  
  390.50  3.1347E-004  
  391.00  7.1861E-005  
  391.50  0.0000E+000  
  392.00  0.0000E+000  
  392.50  0.0000E+000  
  393.00  0.0000E+000  
  393.50  0.0000E+000  
  394.00  0.0000E+000  
  394.50  0.0000E+000  
  395.00  0.0000E+000  
  395.50  0.0000E+000  
  396.00  3.3888E-006  
  396.50  9.4943E-005  
  397.00  1.7415E-004  
  397.50  4.9191E-006  
  398.00  0.0000E+000  
  398.50  0.0000E+000  
  399.00  0.0000E+000  
  399.50  0.0000E+000  
  400.00  2.3042E-005  
  400.50  7.9105E-007  
  401.00  0.0000E+000  
  401.50  0.0000E+000  
  402.00  0.0000E+000  
  402.50  4.2903E-005  
  403.00  2.5897E-004  
  403.50  1.1800E-004  
  404.00  0.0000E+000  
  404.50  0.0000E+000  
  405.00  0.0000E+000  
  405.50  0.0000E+000  
  406.00  0.0000E+000  
  406.50  0.0000E+000  
  407.00  0.0000E+000  
  407.50  0.0000E+000  
  408.00  2.8903E-005  
  408.50  1.6699E-004  
  409.00  2.5523E-004  
  409.50  7.8310E-005  
  410.00  0.0000E+000  
  410.50  0.0000E+000  
  411.00  0.0000E+000  
  411.50  0.0000E+000  
  412.00  0.0000E+000  
  412.50  0.0000E+000  
  413.00  0.0000E+000  
  413.50  0.0000E+000  
  414.00  3.0847E-004  
  414.50  4.4817E-004  
  415.00  2.7199E-004  
  415.50  1.6583E-004  
  416.00  0.0000E+000  
  416.50  0.0000E+000  
  417.00  0.0000E+000  
  417.50  0.0000E+000  
  418.00  1.3806E-004  
  418.50  2.5595E-004  
  419.00  6.3334E-004  
  419.50  8.3632E-004  
  420.00  7.3791E-004  
  420.50  5.3179E-004  
  421.00  3.4536E-004  
  421.50  4.5956E-004  
  422.00  8.1697E-004  
  422.50  1.0037E-003  
  423.00  8.1480E-004  
  423.50  3.6116E-004  
  424.00  4.1634E-005  
  424.50  0.0000E+000  
  425.00  9.6130E-005  
  425.50  3.6741E-004  
  426.00  7.7779E-004  
  426.50  1.0578E-003  
  427.00  1.0585E-003  
  427.50  8.3994E-004  
  428.00  5.9939E-004  
  428.50  4.9969E-004  
  429.00  5.3994E-004  
  429.50  5.5564E-004  
  430.00  5.2598E-004  
  430.50  4.4526E-004  
  431.00  6.1324E-004  
  431.50  7.8847E-004  
  432.00  9.7466E-004  
  432.50  1.1477E-003  
  433.00  1.0898E-003  
  433.50  1.0672E-003  
  434.00  7.3574E-004  
  434.50  6.8928E-004  
  435.00  8.2654E-004  
  435.50  1.0975E-003  
  436.00  1.4249E-003  
  436.50  1.3666E-003  
  437.00  1.0214E-003  
  437.50  7.6829E-004  
  438.00  7.3305E-004  
  438.50  7.4816E-004  
  439.00  7.9019E-004  
  439.50  6.7062E-004  
  440.00  7.3362E-004  
  440.50  9.1310E-004  
  441.00  9.5665E-004  
  441.50  8.6416E-004  
  442.00  7.0766E-004  
  442.50  7.5398E-004  
  443.00  9.7156E-004  
  443.50  1.0932E-003  
  444.00  1.1316E-003  
  444.50  1.0978E-003  
  445.00  1.0439E-003  
  445.50  1.0906E-003  
  446.00  1.1306E-003  
  446.50  9.5239E-004  
  447.00  6.9960E-004  
  447.50  6.1342E-004  
  448.00  5.5329E-004  
  448.50  5.9347E-004  
  449.00  6.6701E-004  
  449.50  6.1142E-004  
  450.00  5.7366E-004  
  450.50  4.5350E-004  
  451.00  2.7401E-004  
  451.50  1.7774E-004  
  452.00  2.7879E-004  
  452.50  3.0470E-004  
  453.00  1.5232E-004  
  453.50  0.0000E+000  
  454.00  0.0000E+000  
  454.50  0.0000E+000  
  455.00  0.0000E+000  
  455.50  0.0000E+000  
  456.00  4.2595E-006  
  456.50  7.6235E-005  
  457.00  2.0654E-004  
  457.50  1.3710E-004  
  458.00  0.0000E+000  
  458.50  0.0000E+000  
  459.00  0.0000E+000  
  459.50  1.6345E-004  
  460.00  4.7525E-004  
  460.50  4.4817E-004  
  461.00  2.5330E-004  
  461.50  1.1585E-004  
  462.00  7.4234E-006  
  462.50  9.7527E-005  
  463.00  1.4315E-004  
  463.50  1.7873E-004  
  464.00  3.6758E-004  
  464.50  4.6749E-004  
  465.00  4.7382E-004  
  465.50  6.0539E-004  
  466.00  4.0572E-004  
  466.50  2.7327E-004  
  467.00  1.0772E-004  
  467.50  3.0487E-005  
  468.00  7.3900E-005  
  468.50  1.2937E-004  
  469.00  7.2298E-005  
  469.50  1.6090E-004  
  470.00  3.9957E-004  
  470.50  5.5330E-004  
  471.00  6.1387E-004  
  471.50  4.5700E-004  
  472.00  3.6262E-004  
  472.50  3.1218E-004  
  473.00  2.0535E-004  
  473.50  2.2577E-004  
  474.00  1.7322E-004  
  474.50  2.3306E-004  
  475.00  2.7355E-004  
  475.50  1.1619E-004  
  476.00  4.4175E-005  
  476.50  0.0000E+000  
  477.00  0.0000E+000  
  477.50  0.0000E+000  
  478.00  0.0000E+000  
  478.50  1.5331E-006  
  479.00  1.2556E-005  
  479.50  0.0000E+000  
  480.00  2.1046E-006  
  480.50  2.0810E-005  
  481.00  6.9702E-005  
  481.50  7.3490E-006  
  482.00  8.1382E-005  
  482.50  1.7658E-004  
  483.00  2.8592E-004  
  483.50  3.2551E-004  
  484.00  2.7252E-004  
  484.50  1.2303E-004  
  485.00  2.8291E-006  
  485.50  0.0000E+000  
  486.00  3.5808E-005  
  486.50  1.0141E-004  
  487.00  1.4749E-004  
  487.50  1.1327E-004  
  488.00  1.6154E-004  
  488.50  3.0249E-004  
  489.00  3.0600E-004  
  489.50  3.4082E-004  
  490.00  3.0250E-004  
  490.50  3.3419E-004  
  491.00  4.3898E-004  
  491.50  5.1591E-004  
  492.00  5.2207E-004  
  492.50  3.9871E-004  
  493.00  4.2809E-004  
  493.50  4.4067E-004  
  494.00  5.7644E-004  
  494.50  6.4562E-004  
  495.00  7.4716E-004  
  495.50  8.4173E-004  
  496.00  9.6198E-004  
  496.50  1.1282E-003  
  497.00  1.3074E-003  
  497.50  1.4725E-003  
  498.00  1.5202E-003  
  498.50  1.3607E-003  
  499.00  1.2535E-003  
  499.50  1.2222E-003  
  500.00  1.3191E-003  
  500.50  1.5263E-003  
  501.00  1.7338E-003  
  501.50  1.8466E-003  
  502.00  1.9637E-003  
  502.50  2.0364E-003  
  503.00  2.1000E-003  
  503.50  2.1520E-003  
  504.00  2.2588E-003  
  504.50  2.5067E-003  
  505.00  2.7340E-003  
  505.50  2.8581E-003  
  506.00  2.8764E-003  
  506.50  2.8042E-003  
  507.00  2.9545E-003  
  507.50  3.0552E-003  
  508.00  3.2565E-003  
  508.50  3.4686E-003  
  509.00  3.7035E-003  
  509.50  3.8626E-003  
  510.00  3.8789E-003  
  510.50  3.9791E-003  
  511.00  4.0961E-003  
  511.50  4.2786E-003  
  512.00  4.4258E-003  
  512.50  4.5091E-003  
  513.00  4.6467E-003  
  513.50  4.7685E-003  
  514.00  4.8748E-003  
  514.50  4.9080E-003  
  515.00  4.9516E-003  
  515.50  5.1336E-003  
  516.00  5.3553E-003  
  516.50  5.5230E-003  
  517.00  5.6065E-003  
  517.50  5.6528E-003  
  518.00  5.7809E-003  
  518.50  6.0614E-003  
  519.00  6.2839E-003  
  519.50  6.4708E-003  
  520.00  6.6336E-003  
  520.50  6.8256E-003  
  521.00  6.9879E-003  
  521.50  7.1968E-003  
  522.00  7.2819E-003  
  522.50  7.4550E-003  
  523.00  7.5621E-003  
  523.50  7.6840E-003  
  524.00  7.7742E-003  
  524.50  7.8080E-003  
  525.00  7.9144E-003  
  525.50  7.9849E-003  
  526.00  8.1246E-003  
  526.50  8.1945E-003  
  527.00  8.3471E-003  
  527.50  8.5834E-003  
  528.00  8.8317E-003  
  528.50  9.0067E-003  
  529.00  9.0390E-003  
  529.50  9.1329E-003  
  530.00  9.2470E-003  
  530.50  9.4006E-003  
  531.00  9.6249E-003  
  531.50  9.8411E-003  
  532.00  9.9286E-003  
  532.50  1.0066E-002  
  533.00  1.0009E-002  
  533.50  9.9367E-003  
  534.00  1.0034E-002  
  534.50  1.0224E-002  
  535.00  1.0498E-002  
  535.50  1.0623E-002  
  536.00  1.0503E-002  
  536.50  1.0550E-002  
  537.00  1.0659E-002  
  537.50  1.0786E-002  
  538.00  1.0867E-002  
  538.50  1.0942E-002  
  539.00  1.1159E-002  
  539.50  1.1407E-002  
  540.00  1.1739E-002  
  540.50  1.1960E-002  
  541.00  1.2149E-002  
  541.50  1.2246E-002  
  542.00  1.2299E-002  
  542.50  1.2492E-002  
  543.00  1.2592E-002  
  543.50  1.2707E-002  
  544.00  1.2769E-002  
  544.50  1.2843E-002  
  545.00  1.3124E-002  
  545.50  1.3486E-002  
  546.00  1.3749E-002  
  546.50  1.3813E-002  
  547.00  1.3875E-002  
  547.50  1.3919E-002  
  548.00  1.4238E-002  
  548.50  1.4633E-002  
  549.00  1.5021E-002  
  549.50  1.5378E-002  
  550.00  1.5500E-002  
  550.50  1.5505E-002  
  551.00  1.5573E-002  
  551.50  1.5691E-002  
  552.00  1.5960E-002  
  552.50  1.6081E-002  
  553.00  1.6145E-002  
  553.50  1.6363E-002  
  554.00  1.6718E-002  
  554.50  1.7140E-002  
  555.00  1.7423E-002  
  555.50  1.7564E-002  
  556.00  1.7715E-002  
  556.50  1.8028E-002  
  557.00  1.8368E-002  
  557.50  1.8654E-002  
  558.00  1.8831E-002  
  558.50  1.9127E-002  
  559.00  1.9438E-002  
  559.50  1.9849E-002  
  560.00  2.0280E-002  
  560.50  2.0623E-002  
  561.00  2.0806E-002  
  561.50  2.0861E-002  
  562.00  2.1125E-002  
  562.50  2.1753E-002  
  563.00  2.2448E-002  
  563.50  2.3029E-002  
  564.00  2.3392E-002  
  564.50  2.3710E-002  
  565.00  2.4212E-002  
  565.50  2.4735E-002  
  566.00  2.5259E-002  
  566.50  2.5423E-002  
  567.00  2.5498E-002  
  567.50  2.5720E-002  
  568.00  2.5994E-002  
  568.50  2.6559E-002  
  569.00  2.6999E-002  
  569.50  2.7555E-002  
  570.00  2.8162E-002  
  570.50  2.8742E-002  
  571.00  2.9354E-002  
  571.50  2.9889E-002  
  572.00  3.0281E-002  
  572.50  3.0758E-002  
  573.00  3.1346E-002  
  573.50  3.2107E-002  
  574.00  3.2817E-002  
  574.50  3.3446E-002  
  575.00  3.4008E-002  
  575.50  3.4710E-002  
  576.00  3.5257E-002  
  576.50  3.5882E-002  
  577.00  3.6495E-002  
  577.50  3.7252E-002  
  578.00  3.8107E-002  
  578.50  3.8928E-002  
  579.00  3.9525E-002  
  579.50  4.0193E-002  
  580.00  4.0880E-002  
  580.50  4.1802E-002  
  581.00  4.2700E-002  
  581.50  4.3279E-002  
  582.00  4.3879E-002  
  582.50  4.4686E-002  
  583.00  4.5824E-002  
  583.50  4.6817E-002  
  584.00  4.7585E-002  
  584.50  4.8073E-002  
  585.00  4.8703E-002  
  585.50  4.9252E-002  
  586.00  4.9909E-002  
  586.50  5.0681E-002  
  587.00  5.1655E-002  
  587.50  5.2648E-002  
  588.00  5.3332E-002  
  588.50  5.3974E-002  
  589.00  5.4749E-002  
  589.50  5.5611E-002  
  590.00  5.6532E-002  
  590.50  5.7343E-002  
  591.00  5.8020E-002  
  591.50  5.8860E-002  
  592.00  5.9492E-002  
  592.50  6.0166E-002  
  593.00  6.0831E-002  
  593.50  6.1678E-002  
  594.00  6.2837E-002  
  594.50  6.3733E-002  
  595.00  6.4607E-002  
  595.50  6.5371E-002  
  596.00  6.6399E-002  
  596.50  6.7325E-002  
  597.00  6.7835E-002  
  597.50  6.8147E-002  
  598.00  6.8324E-002  
  598.50  6.8845E-002  
  599.00  6.9692E-002  
  599.50  7.0556E-002  
  600.00  7.1464E-002  
  600.50  7.2333E-002  
  601.00  7.3173E-002  
  601.50  7.3751E-002  
  602.00  7.3964E-002  
  602.50  7.4292E-002  
  603.00  7.4892E-002  
  603.50  7.5572E-002  
  604.00  7.6124E-002  
  604.50  7.6423E-002  
  605.00  7.6794E-002  
  605.50  7.7139E-002  
  606.00  7.7514E-002  
  606.50  7.7949E-002  
  607.00  7.8333E-002  
  607.50  7.8803E-002  
  608.00  7.9208E-002  
  608.50  7.9479E-002  
  609.00  7.9640E-002  
  609.50  7.9983E-002  
  610.00  8.0552E-002  
  610.50  8.1039E-002  
  611.00  8.1118E-002  
  611.50  8.1510E-002  
  612.00  8.2052E-002  
  612.50  8.2457E-002  
  613.00  8.2475E-002  
  613.50  8.2511E-002  
  614.00  8.2727E-002  
  614.50  8.2757E-002  
  615.00  8.2491E-002  
  615.50  8.2733E-002  
  616.00  8.3152E-002  
  616.50  8.3604E-002  
  617.00  8.3327E-002  
  617.50  8.2903E-002  
  618.00  8.2867E-002  
  618.50  8.2916E-002  
  619.00  8.2943E-002  
  619.50  8.2987E-002  
  620.00  8.3028E-002  
  620.50  8.3035E-002  
  621.00  8.2944E-002  
  621.50  8.2818E-002  
  622.00  8.2695E-002  
  622.50  8.2494E-002  
  623.00  8.2451E-002  
  623.50  8.2339E-002  
  624.00  8.2058E-002  
  624.50  8.1811E-002  
  625.00  8.1651E-002  
  625.50  8.1584E-002  
  626.00  8.1387E-002  
  626.50  8.1374E-002  
  627.00  8.1003E-002  
  627.50  8.0508E-002  
  628.00  8.0024E-002  
  628.50  7.9792E-002  
  629.00  7.9266E-002  
  629.50  7.8679E-002  
  630.00  7.8542E-002  
  630.50  7.8966E-002  
  631.00  7.9132E-002  
  631.50  7.8871E-002  
  632.00  7.8115E-002  
  632.50  7.7463E-002  
  633.00  7.6972E-002  
  633.50  7.6689E-002  
  634.00  7.6511E-002  
  634.50  7.6147E-002  
  635.00  7.5404E-002  
  635.50  7.4735E-002  
  636.00  7.4474E-002  
  636.50  7.4441E-002  
  637.00  7.4293E-002  
  637.50  7.3563E-002  
  638.00  7.2876E-002  
  638.50  7.2156E-002  
  639.00  7.1428E-002  
  639.50  7.0766E-002  
  640.00  7.0039E-002  
  640.50  6.9687E-002  
  641.00  6.9658E-002  
  641.50  6.9336E-002  
  642.00  6.8752E-002  
  642.50  6.8061E-002  
  643.00  6.7660E-002  
  643.50  6.7598E-002  
  644.00  6.7012E-002  
  644.50  6.6230E-002  
  645.00  6.5329E-002  
  645.50  6.4935E-002  
  646.00  6.4896E-002  
  646.50  6.4873E-002  
  647.00  6.4332E-002  
  647.50  6.3460E-002  
  648.00  6.2626E-002  
  648.50  6.2025E-002  
  649.00  6.1610E-002  
  649.50  6.0896E-002  
  650.00  6.0509E-002  
  650.50  6.0301E-002  
  651.00  6.0096E-002  
  651.50  5.9466E-002  
  652.00  5.8684E-002  
  652.50  5.7841E-002  
  653.00  5.7220E-002  
  653.50  5.6600E-002  
  654.00  5.6369E-002  
  654.50  5.5876E-002  
  655.00  5.5318E-002  
  655.50  5.4576E-002  
  656.00  5.3888E-002  
  656.50  5.3184E-002  
  657.00  5.2652E-002  
  657.50  5.2353E-002  
  658.00  5.2308E-002  
  658.50  5.2024E-002  
  659.00  5.1652E-002  
  659.50  5.1093E-002  
  660.00  5.0791E-002  
  660.50  5.0555E-002  
  661.00  4.9846E-002  
  661.50  4.8553E-002  
  662.00  4.7438E-002  
  662.50  4.7014E-002  
  663.00  4.6669E-002  
  663.50  4.6094E-002  
  664.00  4.5318E-002  
  664.50  4.4683E-002  
  665.00  4.3960E-002  
  665.50  4.3238E-002  
  666.00  4.2746E-002  
  666.50  4.2263E-002  
  667.00  4.1593E-002  
  667.50  4.1025E-002  
  668.00  4.1022E-002  
  668.50  4.0892E-002  
  669.00  4.0423E-002  
  669.50  3.9317E-002  
  670.00  3.8512E-002  
  670.50  3.8050E-002  
  671.00  3.7449E-002  
  671.50  3.7027E-002  
  672.00  3.6531E-002  
  672.50  3.6366E-002  
  673.00  3.5823E-002  
  673.50  3.5489E-002  
  674.00  3.5177E-002  
  674.50  3.4899E-002  
  675.00  3.4365E-002  
  675.50  3.3717E-002  
  676.00  3.3425E-002  
  676.50  3.2725E-002  
  677.00  3.2295E-002  
  677.50  3.1873E-002  
  678.00  3.1642E-002  
  678.50  3.1077E-002  
  679.00  3.0490E-002  
  679.50  2.9887E-002  
  680.00  2.9386E-002  
  680.50  2.8921E-002  
  681.00  2.8692E-002  
  681.50  2.8310E-002  
  682.00  2.7755E-002  
  682.50  2.7571E-002  
  683.00  2.7803E-002  
  683.50  2.7935E-002  
  684.00  2.7543E-002  
  684.50  2.6505E-002  
  685.00  2.5413E-002  
  685.50  2.4953E-002  
  686.00  2.5162E-002  
  686.50  2.5283E-002  
  687.00  2.4834E-002  
  687.50  2.4297E-002  
  688.00  2.4019E-002  
  688.50  2.3876E-002  
  689.00  2.3189E-002  
  689.50  2.2703E-002  
  690.00  2.2072E-002  
  690.50  2.1916E-002  
  691.00  2.1555E-002  
  691.50  2.1458E-002  
  692.00  2.1062E-002  
  692.50  2.0695E-002  
  693.00  2.0409E-002  
  693.50  2.0344E-002  
  694.00  2.0352E-002  
  694.50  2.0423E-002  
  695.00  2.0212E-002  
  695.50  2.0209E-002  
  696.00  1.9572E-002  
  696.50  1.9009E-002  
  697.00  1.8284E-002  
  697.50  1.8068E-002  
  698.00  1.7882E-002  
  698.50  1.7621E-002  
  699.00  1.7287E-002  
  699.50  1.7255E-002  
  700.00  1.6886E-002  
  700.50  1.6774E-002  
  701.00  1.6517E-002  
  701.50  1.6142E-002  
  702.00  1.5268E-002  
  702.50  1.4572E-002  
  703.00  1.4157E-002  
  703.50  1.4122E-002  
  704.00  1.4161E-002  
  704.50  1.4037E-002  
  705.00  1.3754E-002  
  705.50  1.3428E-002  
  706.00  1.3271E-002  
  706.50  1.3029E-002  
  707.00  1.2785E-002  
  707.50  1.2682E-002  
  708.00  1.2745E-002  
  708.50  1.2880E-002  
  709.00  1.2720E-002  
  709.50  1.2807E-002  
  710.00  1.2863E-002  
  710.50  1.2683E-002  
  711.00  1.2171E-002  
  711.50  1.1537E-002  
  712.00  1.1501E-002  
  712.50  1.1259E-002  
  713.00  1.1017E-002  
  713.50  1.0497E-002  
  714.00  1.0351E-002  
  714.50  1.0532E-002  
  715.00  1.0283E-002  
  715.50  9.8900E-003  
  716.00  9.5873E-003  
  716.50  9.6646E-003  
  717.00  9.5577E-003  
  717.50  9.5109E-003  
  718.00  9.3720E-003  
  718.50  9.1334E-003  
  719.00  8.8355E-003  
  719.50  9.1880E-003  
  720.00  9.6958E-003  
  720.50  9.7217E-003  
  721.00  8.9780E-003  
  721.50  8.3137E-003  
  722.00  8.0807E-003  
  722.50  8.2871E-003  
  723.00  8.3492E-003  
  723.50  8.0320E-003  
  724.00  8.0258E-003  
  724.50  8.3257E-003  
  725.00  8.1029E-003  
  725.50  7.2201E-003  
  726.00  6.9322E-003  
  726.50  7.0466E-003  
  727.00  6.9854E-003  
  727.50  6.7370E-003  
  728.00  6.6016E-003  
  728.50  6.5173E-003  
  729.00  6.3255E-003  
  729.50  6.0351E-003  
  730.00  5.4966E-003  
  730.50  5.1376E-003  
  731.00  5.0234E-003  
  731.50  5.2351E-003  
  732.00  5.7640E-003  
  732.50  6.4702E-003  
  733.00  7.1120E-003  
  733.50  7.0501E-003  
  734.00  6.4875E-003  
  734.50  5.8467E-003  
  735.00  5.5744E-003  
  735.50  5.4906E-003  
  736.00  5.3235E-003  
  736.50  4.8377E-003  
  737.00  4.2857E-003  
  737.50  4.6363E-003  
  738.00  4.6024E-003  
  738.50  4.7084E-003  
  739.00  4.7261E-003  
  739.50  5.0459E-003  
  740.00  5.0027E-003  
  740.50  4.0245E-003  
  741.00  3.7831E-003  
  741.50  4.3510E-003  
  742.00  4.6703E-003  
  742.50  4.6469E-003  
  743.00  3.9752E-003  
  743.50  3.6318E-003  
  744.00  3.6706E-003  
  744.50  3.9409E-003  
  745.00  4.2264E-003  
  745.50  3.9834E-003  
  746.00  3.1518E-003  
  746.50  2.5808E-003  
  747.00  2.7164E-003  
  747.50  3.3309E-003  
  748.00  2.9823E-003  
  748.50  2.5497E-003  
  749.00  2.5390E-003  
  749.50  2.8846E-003  
  750.00  3.0055E-003  
  750.50  3.2286E-003  
  751.00  3.5767E-003  
  751.50  3.3470E-003  
  752.00  3.1584E-003  
  752.50  3.1747E-003  
  753.00  2.9597E-003  
  753.50  2.7609E-003  
  754.00  2.1348E-003  
  754.50  2.4209E-003  
  755.00  2.1235E-003  
  755.50  2.4098E-003  
  756.00  2.4575E-003  
  756.50  2.8857E-003  
  757.00  2.4976E-003  
  757.50  2.0293E-003  
  758.00  1.8842E-003  
  758.50  2.1727E-003  
  759.00  2.3855E-003  
  759.50  2.1017E-003  
  760.00  1.3989E-003  
  760.50  1.3775E-003  
  761.00  1.8422E-003  
  761.50  1.8876E-003  
  762.00  2.0627E-003  
  762.50  2.4276E-003  
  763.00  2.4116E-003  
  763.50  2.2500E-003  
  764.00  2.1988E-003  
  764.50  2.3781E-003  
  765.00  2.1629E-003  
  765.50  1.9707E-003  
  766.00  1.6062E-003  
  766.50  1.3187E-003  
  767.00  8.3947E-004  
  767.50  3.2706E-004  
  768.00  6.6522E-004  
  768.50  4.4476E-004  
  769.00  4.9258E-004  
  769.50  2.2691E-004  
  770.00  8.3270E-004  
  770.50  1.9005E-003  
  771.00  2.0963E-003  
  771.50  1.6686E-003  
  772.00  1.1288E-003  
  772.50  1.3229E-003  
  773.00  1.5578E-003  
  773.50  1.7570E-003  
  774.00  1.3999E-003  
  774.50  1.2630E-003  
  775.00  1.4935E-003  
  775.50  1.8911E-003  
  776.00  2.4892E-003  
  776.50  2.1414E-003  
  777.00  1.2816E-003  
  777.50  2.1276E-004  
  778.00  5.1527E-004  
  778.50  1.2288E-003  
  779.00  1.1090E-003  
  779.50  4.0299E-004  
  780.00  5.5562E-004  
  780.50  2.0215E-003  
  781.00  2.8433E-003  
  781.50  2.1164E-003  
  782.00  6.5241E-004  
  782.50  3.5494E-004  
  783.00  5.5316E-004  
  783.50  5.9442E-004  
  784.00  1.1394E-003  
  784.50  1.6598E-003  
  785.00  1.7913E-003  
  785.50  1.3507E-003  
  786.00  8.1313E-004  
  786.50  5.6944E-004  
  787.00  6.6406E-004  
  787.50  1.0682E-003  
  788.00  9.4823E-004  
  788.50  6.5884E-004  
  789.00  4.2284E-004  
  789.50  5.0840E-004  
  790.00  6.0655E-004  
  790.50  1.5607E-004  
  791.00  0.0000E+000  
  791.50  0.0000E+000  
  792.00  0.0000E+000  
  792.50  2.4157E-004  
  793.00  1.2236E-003  
  793.50  1.8159E-003  
  794.00  2.0640E-003  
  794.50  1.1827E-003  
  795.00  4.0052E-004  
  795.50  5.1353E-004  
  796.00  1.2787E-003  
  796.50  1.2162E-003  
  797.00  1.3328E-003  
  797.50  8.4933E-004  
  798.00  1.5490E-005  
  798.50  0.0000E+000  
  799.00  0.0000E+000  
  799.50  9.4535E-004  
  800.00  7.5522E-004  
  800.50  6.4173E-004  
  801.00  1.3509E-003  
  801.50  2.2051E-003  
  802.00  2.3848E-003  
  802.50  1.6893E-003  
  803.00  1.0811E-003  
  803.50  0.0000E+000  
  804.00  0.0000E+000  
  804.50  0.0000E+000  
  805.00  0.0000E+000  
  805.50  3.2541E-004  
  806.00  2.0825E-004  
  806.50  1.3369E-003  
  807.00  1.3831E-003  
  807.50  1.8166E-003  
  808.00  8.4993E-004  
  808.50  7.2864E-004  
  809.00  2.7079E-004  
  809.50  2.5654E-004  
  810.00  2.7447E-004  
  810.50  7.3111E-004  
  811.00  1.0228E-003  
  811.50  4.1654E-004  
  812.00  1.2326E-004  
  812.50  3.4959E-005  
  813.00  6.2777E-006  
  813.50  0.0000E+000  
  814.00  0.0000E+000  
  814.50  0.0000E+000  
  815.00  0.0000E+000  
  815.50  0.0000E+000  
  816.00  0.0000E+000  
  816.50  0.0000E+000  
  817.00  0.0000E+000  
  817.50  2.2091E-004  
  818.00  6.6890E-004  
  818.50  5.5581E-004  
  819.00  6.1491E-004  
  819.50  4.4947E-004  
  820.00  6.7584E-004  
  820.50  2.5735E-004  
  821.00  4.2745E-004  
  821.50  3.4426E-004  
  822.00  1.3497E-003  
  822.50  8.1860E-004  
  823.00  7.6739E-004  
  823.50  4.6146E-004  
  824.00  2.4599E-005  
  824.50  0.0000E+000  
  825.00  0.0000E+000  
  825.50  0.0000E+000  
  826.00  0.0000E+000  
  826.50  0.0000E+000  
  827.00  0.0000E+000  
  827.50  0.0000E+000  
  828.00  0.0000E+000  
  828.50  0.0000E+000  
  829.00  0.0000E+000  
  829.50  0.0000E+000  
  830.00  0.0000E+000  
  830.50  0.0000E+000  
  831.00  0.0000E+000  
  831.50  0.0000E+000  
  832.00  0.0000E+000  
  832.50  0.0000E+000  
  833.00  0.0000E+000  
  833.50  0.0000E+000  
  834.00  0.0000E+000  
  834.50  0.0000E+000  
  835.00  0.0000E+000  
  835.50  0.0000E+000  
  836.00  0.0000E+000  
  836.50  0.0000E+000  
  837.00  0.0000E+000  
  837.50  0.0000E+000  
  838.00  0.0000E+000  
  838.50  7.1682E-004  
  839.00  7.1826E-004  
  839.50  2.0317E-004  
  840.00  2.2278E-005  
  840.50  2.7291E-004  
  841.00  0.0000E+000  
  841.50  0.0000E+000  
  842.00  0.0000E+000  
  842.50  0.0000E+000  
  843.00  0.0000E+000  
  843.50  0.0000E+000  
  844.00  0.0000E+000  
  844.50  0.0000E+000  
  845.00  0.0000E+000  
  845.50  0.0000E+000  
  846.00  4.3572E-004  
  846.50  1.2242E-003  
  847.00  2.2155E-004  
  847.50  0.0000E+000  
  848.00  0.0000E+000  
  848.50  0.0000E+000  
  849.00  0.0000E+000  
  849.50  0.0000E+000  
  850.00  0.0000E+000  
  850.50  0.0000E+000  
  851.00  0.0000E+000  
  851.50  0.0000E+000  
  852.00  3.3206E-005  
  852.50  1.5810E-003  
  853.00  3.0767E-003  
  853.50  1.7977E-003  
  854.00  1.1222E-003  
  854.50  8.4166E-005  
  855.00  0.0000E+000  
  855.50  0.0000E+000  
  856.00  0.0000E+000  
  856.50  2.3070E-003  
  857.00  2.0430E-003  
  857.50  1.9320E-005  
  858.00  1.4628E-005  
  858.50  1.2506E-003  
  859.00  3.4472E-003  
  859.50  2.3136E-003  
  860.00  1.3146E-003  
  860.50  1.4032E-003  
  861.00  1.1208E-003  
  861.50  6.6437E-004  
  862.00  5.8509E-004  
  862.50  1.0198E-003  
  863.00  6.1647E-005  
  863.50  0.0000E+000  
  864.00  0.0000E+000  
  864.50  0.0000E+000  
  865.00  0.0000E+000  
  865.50  0.0000E+000  
  866.00  0.0000E+000  
  866.50  0.0000E+000  
  867.00  0.0000E+000  
  867.50  0.0000E+000  
  868.00  0.0000E+000  
  868.50  9.8165E-004  
  869.00  1.9731E-003  
  869.50  4.3465E-004  
  870.00  0.0000E+000  
  870.50  0.0000E+000  
  871.00  0.0000E+000  
  871.50  0.0000E+000  
  872.00  0.0000E+000  
  872.50  0.0000E+000  
  873.00  0.0000E+000  
  873.50  0.0000E+000  
  874.00  2.9054E-005  
  874.50  0.0000E+000  
  875.00  0.0000E+000  
  875.50  2.8841E-004  
  876.00  1.0314E-003  
  876.50  0.0000E+000  
  877.00  1.1760E-004  
  877.50  1.8747E-003  
  878.00  1.8034E-003  
  878.50  5.7510E-004  
  879.00  0.0000E+000  
  879.50  0.0000E+000  
  880.00  0.0000E+000  
  880.50  0.0000E+000  
  881.00  0.0000E+000  
  881.50  0.0000E+000  
  882.00  3.2711E-004  
  882.50  4.8540E-004  
  883.00  1.8530E-005  
  883.50  0.0000E+000  
  884.00  0.0000E+000  
  884.50  0.0000E+000  
  885.00  0.0000E+000  
  885.50  0.0000E+000  
  886.00  0.0000E+000  
  886.50  0.0000E+000  
  887.00  0.0000E+000  
  887.50  2.4422E-004  
  888.00  0.0000E+000  
  888.50  0.0000E+000  
  889.00  0.0000E+000  
  889.50  0.0000E+000  
  890.00  0.0000E+000  
  890.50  0.0000E+000  
  891.00  0.0000E+000  
  891.50  0.0000E+000  
  892.00  0.0000E+000  
  892.50  1.4098E-004  
  893.00  1.6367E-004  
  893.50  0.0000E+000  
  894.00  0.0000E+000  
  894.50  0.0000E+000  
  895.00  0.0000E+000  
  895.50  0.0000E+000  
  896.00  0.0000E+000  
  896.50  2.7595E-005  
  897.00  0.0000E+000  
  897.50  0.0000E+000  
  898.00  0.0000E+000  
  898.50  1.1669E-003  
  899.00  3.2998E-003  
  899.50  3.5357E-005  
