
# From lspdd.org
# 
# Name: LED-Lot3-L3 QCPassed A19 -
# Indice spectral Valeur 
# MSI 0.06 
# SLI 0.19 
# IPI 0.83 
# Pourcentage de bleu 2.4 
# Caractéristique Valeur 
# CCT calculée (K) 1522 
# CCT du fabricant (K) 1500 
# Tension (V) 100 
# Puissance (W) 7.0 
# Efficacité lumineuse (Lum/W) ND 
#
# Image: '/app/system/img_1s/2790/medium_image1.JPG?1633620764'
# 

  273.00  0.0000E+000  
  273.50  0.0000E+000  
  274.00  0.0000E+000  
  274.50  0.0000E+000  
  275.00  0.0000E+000  
  275.50  0.0000E+000  
  276.00  0.0000E+000  
  276.50  0.0000E+000  
  277.00  0.0000E+000  
  277.50  0.0000E+000  
  278.00  0.0000E+000  
  278.50  0.0000E+000  
  279.00  0.0000E+000  
  279.50  0.0000E+000  
  280.00  0.0000E+000  
  280.50  0.0000E+000  
  281.00  0.0000E+000  
  281.50  0.0000E+000  
  282.00  0.0000E+000  
  282.50  0.0000E+000  
  283.00  0.0000E+000  
  283.50  0.0000E+000  
  284.00  0.0000E+000  
  284.50  0.0000E+000  
  285.00  0.0000E+000  
  285.50  0.0000E+000  
  286.00  0.0000E+000  
  286.50  0.0000E+000  
  287.00  0.0000E+000  
  287.50  0.0000E+000  
  288.00  0.0000E+000  
  288.50  0.0000E+000  
  289.00  0.0000E+000  
  289.50  0.0000E+000  
  290.00  0.0000E+000  
  290.50  0.0000E+000  
  291.00  0.0000E+000  
  291.50  0.0000E+000  
  292.00  0.0000E+000  
  292.50  0.0000E+000  
  293.00  0.0000E+000  
  293.50  0.0000E+000  
  294.00  0.0000E+000  
  294.50  0.0000E+000  
  295.00  0.0000E+000  
  295.50  0.0000E+000  
  296.00  0.0000E+000  
  296.50  0.0000E+000  
  297.00  0.0000E+000  
  297.50  0.0000E+000  
  298.00  0.0000E+000  
  298.50  0.0000E+000  
  299.00  0.0000E+000  
  299.50  0.0000E+000  
  300.00  0.0000E+000  
  300.50  0.0000E+000  
  301.00  0.0000E+000  
  301.50  5.4617E-005  
  302.00  2.2387E-005  
  302.50  0.0000E+000  
  303.00  0.0000E+000  
  303.50  0.0000E+000  
  304.00  0.0000E+000  
  304.50  0.0000E+000  
  305.00  0.0000E+000  
  305.50  0.0000E+000  
  306.00  0.0000E+000  
  306.50  0.0000E+000  
  307.00  0.0000E+000  
  307.50  1.1530E-004  
  308.00  3.2134E-004  
  308.50  3.3695E-004  
  309.00  2.4984E-004  
  309.50  3.5205E-004  
  310.00  2.3730E-004  
  310.50  1.5867E-005  
  311.00  0.0000E+000  
  311.50  0.0000E+000  
  312.00  0.0000E+000  
  312.50  0.0000E+000  
  313.00  0.0000E+000  
  313.50  0.0000E+000  
  314.00  0.0000E+000  
  314.50  0.0000E+000  
  315.00  0.0000E+000  
  315.50  0.0000E+000  
  316.00  0.0000E+000  
  316.50  0.0000E+000  
  317.00  0.0000E+000  
  317.50  0.0000E+000  
  318.00  0.0000E+000  
  318.50  0.0000E+000  
  319.00  0.0000E+000  
  319.50  0.0000E+000  
  320.00  0.0000E+000  
  320.50  0.0000E+000  
  321.00  0.0000E+000  
  321.50  0.0000E+000  
  322.00  0.0000E+000  
  322.50  0.0000E+000  
  323.00  0.0000E+000  
  323.50  0.0000E+000  
  324.00  0.0000E+000  
  324.50  0.0000E+000  
  325.00  0.0000E+000  
  325.50  0.0000E+000  
  326.00  0.0000E+000  
  326.50  0.0000E+000  
  327.00  1.6615E-005  
  327.50  1.8084E-004  
  328.00  2.6360E-004  
  328.50  1.4543E-004  
  329.00  4.8349E-005  
  329.50  0.0000E+000  
  330.00  0.0000E+000  
  330.50  0.0000E+000  
  331.00  0.0000E+000  
  331.50  0.0000E+000  
  332.00  0.0000E+000  
  332.50  1.7494E-004  
  333.00  3.0063E-004  
  333.50  1.0747E-004  
  334.00  1.2574E-005  
  334.50  0.0000E+000  
  335.00  0.0000E+000  
  335.50  0.0000E+000  
  336.00  0.0000E+000  
  336.50  0.0000E+000  
  337.00  0.0000E+000  
  337.50  0.0000E+000  
  338.00  0.0000E+000  
  338.50  0.0000E+000  
  339.00  0.0000E+000  
  339.50  0.0000E+000  
  340.00  0.0000E+000  
  340.50  0.0000E+000  
  341.00  0.0000E+000  
  341.50  0.0000E+000  
  342.00  0.0000E+000  
  342.50  0.0000E+000  
  343.00  0.0000E+000  
  343.50  0.0000E+000  
  344.00  0.0000E+000  
  344.50  0.0000E+000  
  345.00  0.0000E+000  
  345.50  0.0000E+000  
  346.00  0.0000E+000  
  346.50  0.0000E+000  
  347.00  0.0000E+000  
  347.50  0.0000E+000  
  348.00  0.0000E+000  
  348.50  0.0000E+000  
  349.00  0.0000E+000  
  349.50  0.0000E+000  
  350.00  0.0000E+000  
  350.50  0.0000E+000  
  351.00  0.0000E+000  
  351.50  0.0000E+000  
  352.00  0.0000E+000  
  352.50  0.0000E+000  
  353.00  0.0000E+000  
  353.50  1.0493E-004  
  354.00  0.0000E+000  
  354.50  0.0000E+000  
  355.00  0.0000E+000  
  355.50  0.0000E+000  
  356.00  0.0000E+000  
  356.50  0.0000E+000  
  357.00  0.0000E+000  
  357.50  0.0000E+000  
  358.00  0.0000E+000  
  358.50  0.0000E+000  
  359.00  0.0000E+000  
  359.50  0.0000E+000  
  360.00  0.0000E+000  
  360.50  0.0000E+000  
  361.00  0.0000E+000  
  361.50  0.0000E+000  
  362.00  0.0000E+000  
  362.50  0.0000E+000  
  363.00  0.0000E+000  
  363.50  0.0000E+000  
  364.00  0.0000E+000  
  364.50  0.0000E+000  
  365.00  0.0000E+000  
  365.50  0.0000E+000  
  366.00  0.0000E+000  
  366.50  0.0000E+000  
  367.00  0.0000E+000  
  367.50  0.0000E+000  
  368.00  0.0000E+000  
  368.50  0.0000E+000  
  369.00  0.0000E+000  
  369.50  0.0000E+000  
  370.00  0.0000E+000  
  370.50  0.0000E+000  
  371.00  0.0000E+000  
  371.50  0.0000E+000  
  372.00  0.0000E+000  
  372.50  0.0000E+000  
  373.00  0.0000E+000  
  373.50  0.0000E+000  
  374.00  0.0000E+000  
  374.50  0.0000E+000  
  375.00  0.0000E+000  
  375.50  0.0000E+000  
  376.00  0.0000E+000  
  376.50  0.0000E+000  
  377.00  0.0000E+000  
  377.50  0.0000E+000  
  378.00  0.0000E+000  
  378.50  0.0000E+000  
  379.00  0.0000E+000  
  379.50  0.0000E+000  
  380.00  0.0000E+000  
  380.50  0.0000E+000  
  381.00  0.0000E+000  
  381.50  0.0000E+000  
  382.00  0.0000E+000  
  382.50  0.0000E+000  
  383.00  0.0000E+000  
  383.50  0.0000E+000  
  384.00  0.0000E+000  
  384.50  0.0000E+000  
  385.00  0.0000E+000  
  385.50  0.0000E+000  
  386.00  0.0000E+000  
  386.50  2.0901E-006  
  387.00  8.8960E-005  
  387.50  1.6514E-004  
  388.00  7.8613E-005  
  388.50  0.0000E+000  
  389.00  0.0000E+000  
  389.50  1.2135E-004  
  390.00  2.4272E-004  
  390.50  2.2394E-004  
  391.00  0.0000E+000  
  391.50  0.0000E+000  
  392.00  0.0000E+000  
  392.50  0.0000E+000  
  393.00  0.0000E+000  
  393.50  0.0000E+000  
  394.00  4.6864E-005  
  394.50  9.0875E-005  
  395.00  0.0000E+000  
  395.50  0.0000E+000  
  396.00  0.0000E+000  
  396.50  0.0000E+000  
  397.00  0.0000E+000  
  397.50  0.0000E+000  
  398.00  0.0000E+000  
  398.50  0.0000E+000  
  399.00  0.0000E+000  
  399.50  0.0000E+000  
  400.00  0.0000E+000  
  400.50  0.0000E+000  
  401.00  0.0000E+000  
  401.50  0.0000E+000  
  402.00  0.0000E+000  
  402.50  0.0000E+000  
  403.00  0.0000E+000  
  403.50  0.0000E+000  
  404.00  0.0000E+000  
  404.50  0.0000E+000  
  405.00  0.0000E+000  
  405.50  0.0000E+000  
  406.00  0.0000E+000  
  406.50  0.0000E+000  
  407.00  0.0000E+000  
  407.50  0.0000E+000  
  408.00  0.0000E+000  
  408.50  1.5570E-005  
  409.00  1.8610E-004  
  409.50  1.1133E-004  
  410.00  0.0000E+000  
  410.50  0.0000E+000  
  411.00  0.0000E+000  
  411.50  0.0000E+000  
  412.00  1.0765E-004  
  412.50  1.0342E-004  
  413.00  6.2105E-005  
  413.50  1.9418E-004  
  414.00  5.1153E-004  
  414.50  7.2496E-004  
  415.00  6.8303E-004  
  415.50  4.6034E-004  
  416.00  7.3846E-005  
  416.50  0.0000E+000  
  417.00  0.0000E+000  
  417.50  0.0000E+000  
  418.00  0.0000E+000  
  418.50  0.0000E+000  
  419.00  1.3159E-006  
  419.50  0.0000E+000  
  420.00  0.0000E+000  
  420.50  0.0000E+000  
  421.00  0.0000E+000  
  421.50  0.0000E+000  
  422.00  2.0830E-004  
  422.50  6.2116E-004  
  423.00  8.5002E-004  
  423.50  6.8026E-004  
  424.00  3.5405E-004  
  424.50  9.8863E-005  
  425.00  2.5307E-005  
  425.50  9.4414E-005  
  426.00  3.1496E-004  
  426.50  5.2169E-004  
  427.00  5.8914E-004  
  427.50  4.2035E-004  
  428.00  3.8571E-004  
  428.50  4.0916E-004  
  429.00  6.1317E-004  
  429.50  6.9223E-004  
  430.00  5.9807E-004  
  430.50  4.9084E-004  
  431.00  7.3974E-004  
  431.50  9.0811E-004  
  432.00  7.7181E-004  
  432.50  5.1470E-004  
  433.00  5.0435E-004  
  433.50  5.7884E-004  
  434.00  5.3017E-004  
  434.50  4.4209E-004  
  435.00  3.5625E-004  
  435.50  5.7308E-004  
  436.00  9.3641E-004  
  436.50  1.1162E-003  
  437.00  9.7414E-004  
  437.50  7.2296E-004  
  438.00  7.1385E-004  
  438.50  6.9836E-004  
  439.00  9.2879E-004  
  439.50  1.0493E-003  
  440.00  1.0702E-003  
  440.50  1.0946E-003  
  441.00  9.6051E-004  
  441.50  7.5600E-004  
  442.00  6.9021E-004  
  442.50  7.6621E-004  
  443.00  1.0360E-003  
  443.50  1.1697E-003  
  444.00  1.0642E-003  
  444.50  9.2550E-004  
  445.00  8.0840E-004  
  445.50  9.8836E-004  
  446.00  1.1235E-003  
  446.50  1.1744E-003  
  447.00  1.0657E-003  
  447.50  8.3121E-004  
  448.00  5.8777E-004  
  448.50  3.9798E-004  
  449.00  3.0908E-004  
  449.50  3.1236E-004  
  450.00  4.5216E-004  
  450.50  3.6609E-004  
  451.00  2.8169E-004  
  451.50  2.3850E-004  
  452.00  3.5838E-004  
  452.50  5.0416E-004  
  453.00  4.7369E-004  
  453.50  2.0960E-004  
  454.00  0.0000E+000  
  454.50  9.1386E-007  
  455.00  5.7009E-005  
  455.50  5.2728E-006  
  456.00  0.0000E+000  
  456.50  0.0000E+000  
  457.00  0.0000E+000  
  457.50  0.0000E+000  
  458.00  0.0000E+000  
  458.50  0.0000E+000  
  459.00  0.0000E+000  
  459.50  0.0000E+000  
  460.00  2.1140E-005  
  460.50  1.5395E-004  
  461.00  6.3954E-005  
  461.50  1.8263E-005  
  462.00  8.9078E-006  
  462.50  9.7527E-005  
  463.00  1.6792E-004  
  463.50  2.2100E-004  
  464.00  1.8612E-004  
  464.50  2.9377E-004  
  465.00  4.6071E-004  
  465.50  7.0488E-004  
  466.00  6.4965E-004  
  466.50  3.4575E-004  
  467.00  1.5757E-004  
  467.50  8.9182E-005  
  468.00  1.5518E-004  
  468.50  1.8433E-004  
  469.00  1.3041E-004  
  469.50  2.3930E-004  
  470.00  2.9209E-004  
  470.50  3.3879E-004  
  471.00  2.7916E-004  
  471.50  1.3571E-004  
  472.00  9.8141E-005  
  472.50  7.2765E-005  
  473.00  8.8957E-005  
  473.50  5.8385E-005  
  474.00  2.5394E-006  
  474.50  1.7694E-005  
  475.00  1.6571E-004  
  475.50  1.3338E-004  
  476.00  9.4992E-005  
  476.50  0.0000E+000  
  477.00  0.0000E+000  
  477.50  0.0000E+000  
  478.00  0.0000E+000  
  478.50  1.2777E-006  
  479.00  1.0464E-005  
  479.50  8.4400E-005  
  480.00  2.3441E-004  
  480.50  1.3607E-004  
  481.00  2.9469E-005  
  481.50  0.0000E+000  
  482.00  1.3416E-005  
  482.50  1.1690E-004  
  483.00  3.2131E-004  
  483.50  4.5761E-004  
  484.00  4.8941E-004  
  484.50  3.7723E-004  
  485.00  2.1921E-004  
  485.50  2.7378E-004  
  486.00  4.2233E-004  
  486.50  4.8508E-004  
  487.00  3.5231E-004  
  487.50  1.3723E-004  
  488.00  4.2576E-005  
  488.50  1.1602E-004  
  489.00  2.0823E-004  
  489.50  2.5131E-004  
  490.00  1.2783E-004  
  490.50  1.8554E-004  
  491.00  3.6242E-004  
  491.50  5.0800E-004  
  492.00  5.1135E-004  
  492.50  4.1248E-004  
  493.00  4.4024E-004  
  493.50  4.6433E-004  
  494.00  5.7998E-004  
  494.50  6.3820E-004  
  495.00  6.7815E-004  
  495.50  6.9454E-004  
  496.00  7.1793E-004  
  496.50  8.9772E-004  
  497.00  1.1423E-003  
  497.50  1.2788E-003  
  498.00  1.3000E-003  
  498.50  1.1379E-003  
  499.00  9.8969E-004  
  499.50  1.0157E-003  
  500.00  1.2107E-003  
  500.50  1.4908E-003  
  501.00  1.7097E-003  
  501.50  1.8494E-003  
  502.00  1.9499E-003  
  502.50  2.0568E-003  
  503.00  2.0844E-003  
  503.50  2.0195E-003  
  504.00  1.9971E-003  
  504.50  2.0784E-003  
  505.00  2.1712E-003  
  505.50  2.2419E-003  
  506.00  2.2915E-003  
  506.50  2.3761E-003  
  507.00  2.5732E-003  
  507.50  2.7447E-003  
  508.00  3.0133E-003  
  508.50  3.2728E-003  
  509.00  3.5292E-003  
  509.50  3.7366E-003  
  510.00  3.7807E-003  
  510.50  3.8850E-003  
  511.00  4.0605E-003  
  511.50  4.2365E-003  
  512.00  4.4610E-003  
  512.50  4.6303E-003  
  513.00  4.6797E-003  
  513.50  4.7528E-003  
  514.00  4.7706E-003  
  514.50  4.8680E-003  
  515.00  4.9989E-003  
  515.50  5.1678E-003  
  516.00  5.2319E-003  
  516.50  5.2728E-003  
  517.00  5.3877E-003  
  517.50  5.4826E-003  
  518.00  5.5461E-003  
  518.50  5.7020E-003  
  519.00  5.7932E-003  
  519.50  6.0448E-003  
  520.00  6.2200E-003  
  520.50  6.4620E-003  
  521.00  6.7080E-003  
  521.50  6.9659E-003  
  522.00  7.0556E-003  
  522.50  7.0532E-003  
  523.00  7.0068E-003  
  523.50  7.1995E-003  
  524.00  7.4423E-003  
  524.50  7.6013E-003  
  525.00  7.6416E-003  
  525.50  7.5395E-003  
  526.00  7.6471E-003  
  526.50  7.8374E-003  
  527.00  8.0040E-003  
  527.50  8.1132E-003  
  528.00  8.3011E-003  
  528.50  8.6093E-003  
  529.00  8.8327E-003  
  529.50  8.9342E-003  
  530.00  8.8895E-003  
  530.50  8.9012E-003  
  531.00  9.0405E-003  
  531.50  9.2127E-003  
  532.00  9.4522E-003  
  532.50  9.6047E-003  
  533.00  9.7821E-003  
  533.50  9.7802E-003  
  534.00  9.9540E-003  
  534.50  1.0056E-002  
  535.00  1.0227E-002  
  535.50  1.0365E-002  
  536.00  1.0300E-002  
  536.50  1.0383E-002  
  537.00  1.0541E-002  
  537.50  1.0606E-002  
  538.00  1.0677E-002  
  538.50  1.0650E-002  
  539.00  1.0806E-002  
  539.50  1.1022E-002  
  540.00  1.1133E-002  
  540.50  1.1294E-002  
  541.00  1.1623E-002  
  541.50  1.1926E-002  
  542.00  1.2006E-002  
  542.50  1.1996E-002  
  543.00  1.2058E-002  
  543.50  1.2274E-002  
  544.00  1.2494E-002  
  544.50  1.2547E-002  
  545.00  1.2624E-002  
  545.50  1.2724E-002  
  546.00  1.2874E-002  
  546.50  1.3053E-002  
  547.00  1.3276E-002  
  547.50  1.3513E-002  
  548.00  1.3802E-002  
  548.50  1.4119E-002  
  549.00  1.4395E-002  
  549.50  1.4579E-002  
  550.00  1.4619E-002  
  550.50  1.4598E-002  
  551.00  1.4779E-002  
  551.50  1.5004E-002  
  552.00  1.5400E-002  
  552.50  1.5651E-002  
  553.00  1.5801E-002  
  553.50  1.6003E-002  
  554.00  1.6255E-002  
  554.50  1.6477E-002  
  555.00  1.6699E-002  
  555.50  1.6796E-002  
  556.00  1.6837E-002  
  556.50  1.7073E-002  
  557.00  1.7418E-002  
  557.50  1.7928E-002  
  558.00  1.8328E-002  
  558.50  1.8670E-002  
  559.00  1.8993E-002  
  559.50  1.9302E-002  
  560.00  1.9541E-002  
  560.50  1.9681E-002  
  561.00  1.9849E-002  
  561.50  2.0064E-002  
  562.00  2.0392E-002  
  562.50  2.0822E-002  
  563.00  2.1260E-002  
  563.50  2.1721E-002  
  564.00  2.2167E-002  
  564.50  2.2587E-002  
  565.00  2.2965E-002  
  565.50  2.3297E-002  
  566.00  2.3777E-002  
  566.50  2.4210E-002  
  567.00  2.4585E-002  
  567.50  2.4794E-002  
  568.00  2.5150E-002  
  568.50  2.5546E-002  
  569.00  2.5994E-002  
  569.50  2.6367E-002  
  570.00  2.6833E-002  
  570.50  2.7464E-002  
  571.00  2.8064E-002  
  571.50  2.8671E-002  
  572.00  2.9249E-002  
  572.50  2.9890E-002  
  573.00  3.0302E-002  
  573.50  3.0853E-002  
  574.00  3.1446E-002  
  574.50  3.2182E-002  
  575.00  3.2971E-002  
  575.50  3.3622E-002  
  576.00  3.4274E-002  
  576.50  3.4968E-002  
  577.00  3.5607E-002  
  577.50  3.6373E-002  
  578.00  3.7041E-002  
  578.50  3.7564E-002  
  579.00  3.7876E-002  
  579.50  3.8205E-002  
  580.00  3.8871E-002  
  580.50  3.9674E-002  
  581.00  4.0544E-002  
  581.50  4.1293E-002  
  582.00  4.1982E-002  
  582.50  4.2729E-002  
  583.00  4.3561E-002  
  583.50  4.4191E-002  
  584.00  4.4818E-002  
  584.50  4.5250E-002  
  585.00  4.5975E-002  
  585.50  4.6771E-002  
  586.00  4.7646E-002  
  586.50  4.8583E-002  
  587.00  4.9607E-002  
  587.50  5.0584E-002  
  588.00  5.1257E-002  
  588.50  5.2015E-002  
  589.00  5.2504E-002  
  589.50  5.3225E-002  
  590.00  5.3984E-002  
  590.50  5.4911E-002  
  591.00  5.6026E-002  
  591.50  5.6858E-002  
  592.00  5.7245E-002  
  592.50  5.7587E-002  
  593.00  5.8151E-002  
  593.50  5.9081E-002  
  594.00  6.0224E-002  
  594.50  6.1022E-002  
  595.00  6.1606E-002  
  595.50  6.2258E-002  
  596.00  6.3146E-002  
  596.50  6.4405E-002  
  597.00  6.5407E-002  
  597.50  6.5894E-002  
  598.00  6.6087E-002  
  598.50  6.6451E-002  
  599.00  6.7093E-002  
  599.50  6.7870E-002  
  600.00  6.8559E-002  
  600.50  6.9180E-002  
  601.00  6.9739E-002  
  601.50  7.0253E-002  
  602.00  7.0448E-002  
  602.50  7.0683E-002  
  603.00  7.0933E-002  
  603.50  7.1584E-002  
  604.00  7.2351E-002  
  604.50  7.2780E-002  
  605.00  7.3232E-002  
  605.50  7.3544E-002  
  606.00  7.4049E-002  
  606.50  7.4672E-002  
  607.00  7.5292E-002  
  607.50  7.5893E-002  
  608.00  7.6163E-002  
  608.50  7.6598E-002  
  609.00  7.6828E-002  
  609.50  7.7090E-002  
  610.00  7.7274E-002  
  610.50  7.7473E-002  
  611.00  7.7934E-002  
  611.50  7.8273E-002  
  612.00  7.8597E-002  
  612.50  7.8962E-002  
  613.00  7.9196E-002  
  613.50  7.9465E-002  
  614.00  7.9658E-002  
  614.50  7.9615E-002  
  615.00  7.9405E-002  
  615.50  7.9317E-002  
  616.00  7.9267E-002  
  616.50  7.9378E-002  
  617.00  7.9062E-002  
  617.50  7.8805E-002  
  618.00  7.8943E-002  
  618.50  7.9142E-002  
  619.00  7.9234E-002  
  619.50  7.9219E-002  
  620.00  7.9166E-002  
  620.50  7.9073E-002  
  621.00  7.9036E-002  
  621.50  7.8907E-002  
  622.00  7.8839E-002  
  622.50  7.8519E-002  
  623.00  7.8300E-002  
  623.50  7.8064E-002  
  624.00  7.7881E-002  
  624.50  7.7920E-002  
  625.00  7.8057E-002  
  625.50  7.8015E-002  
  626.00  7.7671E-002  
  626.50  7.7310E-002  
  627.00  7.6839E-002  
  627.50  7.6291E-002  
  628.00  7.6137E-002  
  628.50  7.6017E-002  
  629.00  7.5816E-002  
  629.50  7.5159E-002  
  630.00  7.5174E-002  
  630.50  7.4996E-002  
  631.00  7.5090E-002  
  631.50  7.4796E-002  
  632.00  7.4706E-002  
  632.50  7.4163E-002  
  633.00  7.3552E-002  
  633.50  7.3026E-002  
  634.00  7.3021E-002  
  634.50  7.2969E-002  
  635.00  7.2660E-002  
  635.50  7.1889E-002  
  636.00  7.1135E-002  
  636.50  7.0537E-002  
  637.00  6.9761E-002  
  637.50  6.8872E-002  
  638.00  6.8135E-002  
  638.50  6.7819E-002  
  639.00  6.7708E-002  
  639.50  6.7759E-002  
  640.00  6.7470E-002  
  640.50  6.7012E-002  
  641.00  6.6284E-002  
  641.50  6.5562E-002  
  642.00  6.5007E-002  
  642.50  6.4924E-002  
  643.00  6.5111E-002  
  643.50  6.5057E-002  
  644.00  6.4480E-002  
  644.50  6.3581E-002  
  645.00  6.3091E-002  
  645.50  6.2408E-002  
  646.00  6.1886E-002  
  646.50  6.1766E-002  
  647.00  6.1548E-002  
  647.50  6.1222E-002  
  648.00  6.0234E-002  
  648.50  5.9695E-002  
  649.00  5.9055E-002  
  649.50  5.8281E-002  
  650.00  5.7432E-002  
  650.50  5.7239E-002  
  651.00  5.6997E-002  
  651.50  5.6594E-002  
  652.00  5.5885E-002  
  652.50  5.5400E-002  
  653.00  5.5102E-002  
  653.50  5.4355E-002  
  654.00  5.3769E-002  
  654.50  5.3066E-002  
  655.00  5.2761E-002  
  655.50  5.2397E-002  
  656.00  5.2146E-002  
  656.50  5.1885E-002  
  657.00  5.1057E-002  
  657.50  5.0215E-002  
  658.00  4.9356E-002  
  658.50  4.8790E-002  
  659.00  4.8363E-002  
  659.50  4.8090E-002  
  660.00  4.7879E-002  
  660.50  4.7347E-002  
  661.00  4.6477E-002  
  661.50  4.5611E-002  
  662.00  4.4570E-002  
  662.50  4.4231E-002  
  663.00  4.4083E-002  
  663.50  4.3959E-002  
  664.00  4.3412E-002  
  664.50  4.2841E-002  
  665.00  4.2410E-002  
  665.50  4.1778E-002  
  666.00  4.0844E-002  
  666.50  4.0115E-002  
  667.00  3.9673E-002  
  667.50  3.9401E-002  
  668.00  3.9005E-002  
  668.50  3.8461E-002  
  669.00  3.8001E-002  
  669.50  3.7550E-002  
  670.00  3.7270E-002  
  670.50  3.6901E-002  
  671.00  3.6188E-002  
  671.50  3.5341E-002  
  672.00  3.5001E-002  
  672.50  3.4799E-002  
  673.00  3.4451E-002  
  673.50  3.3755E-002  
  674.00  3.3163E-002  
  674.50  3.2707E-002  
  675.00  3.2174E-002  
  675.50  3.1816E-002  
  676.00  3.1669E-002  
  676.50  3.1756E-002  
  677.00  3.1676E-002  
  677.50  3.1119E-002  
  678.00  3.0369E-002  
  678.50  2.9551E-002  
  679.00  2.9045E-002  
  679.50  2.8486E-002  
  680.00  2.8379E-002  
  680.50  2.7873E-002  
  681.00  2.7569E-002  
  681.50  2.6914E-002  
  682.00  2.6528E-002  
  682.50  2.6397E-002  
  683.00  2.6434E-002  
  683.50  2.6449E-002  
  684.00  2.6045E-002  
  684.50  2.5228E-002  
  685.00  2.4394E-002  
  685.50  2.3882E-002  
  686.00  2.3836E-002  
  686.50  2.3865E-002  
  687.00  2.3453E-002  
  687.50  2.2875E-002  
  688.00  2.2317E-002  
  688.50  2.2092E-002  
  689.00  2.1588E-002  
  689.50  2.1130E-002  
  690.00  2.0555E-002  
  690.50  2.0269E-002  
  691.00  2.0090E-002  
  691.50  1.9895E-002  
  692.00  1.9579E-002  
  692.50  1.9050E-002  
  693.00  1.8781E-002  
  693.50  1.8547E-002  
  694.00  1.8697E-002  
  694.50  1.8870E-002  
  695.00  1.8876E-002  
  695.50  1.8752E-002  
  696.00  1.8250E-002  
  696.50  1.7989E-002  
  697.00  1.7279E-002  
  697.50  1.6864E-002  
  698.00  1.6534E-002  
  698.50  1.6459E-002  
  699.00  1.6308E-002  
  699.50  1.6234E-002  
  700.00  1.5725E-002  
  700.50  1.5542E-002  
  701.00  1.5605E-002  
  701.50  1.5646E-002  
  702.00  1.5187E-002  
  702.50  1.4722E-002  
  703.00  1.4167E-002  
  703.50  1.3505E-002  
  704.00  1.2978E-002  
  704.50  1.2902E-002  
  705.00  1.2726E-002  
  705.50  1.2636E-002  
  706.00  1.2458E-002  
  706.50  1.2303E-002  
  707.00  1.2272E-002  
  707.50  1.2381E-002  
  708.00  1.2219E-002  
  708.50  1.1781E-002  
  709.00  1.1335E-002  
  709.50  1.1414E-002  
  710.00  1.1461E-002  
  710.50  1.1232E-002  
  711.00  1.0764E-002  
  711.50  1.0354E-002  
  712.00  1.0459E-002  
  712.50  1.0176E-002  
  713.00  1.0144E-002  
  713.50  9.7875E-003  
  714.00  9.6282E-003  
  714.50  9.1565E-003  
  715.00  8.7971E-003  
  715.50  8.6384E-003  
  716.00  8.6726E-003  
  716.50  8.6439E-003  
  717.00  8.5650E-003  
  717.50  8.6155E-003  
  718.00  8.8119E-003  
  718.50  8.6110E-003  
  719.00  8.3097E-003  
  719.50  7.8737E-003  
  720.00  7.6987E-003  
  720.50  7.6249E-003  
  721.00  7.6304E-003  
  721.50  7.6573E-003  
  722.00  7.4883E-003  
  722.50  7.2291E-003  
  723.00  7.3134E-003  
  723.50  7.2990E-003  
  724.00  7.5004E-003  
  724.50  7.5428E-003  
  725.00  7.5521E-003  
  725.50  7.2188E-003  
  726.00  7.0744E-003  
  726.50  7.2182E-003  
  727.00  7.2956E-003  
  727.50  6.7380E-003  
  728.00  6.4143E-003  
  728.50  5.9630E-003  
  729.00  5.9457E-003  
  729.50  5.2553E-003  
  730.00  4.6080E-003  
  730.50  4.3607E-003  
  731.00  5.0264E-003  
  731.50  5.4824E-003  
  732.00  5.7412E-003  
  732.50  5.7456E-003  
  733.00  6.0272E-003  
  733.50  5.7228E-003  
  734.00  5.2146E-003  
  734.50  5.0464E-003  
  735.00  4.8933E-003  
  735.50  4.4635E-003  
  736.00  4.3806E-003  
  736.50  4.5591E-003  
  737.00  4.5797E-003  
  737.50  4.4346E-003  
  738.00  4.3794E-003  
  738.50  4.1256E-003  
  739.00  3.9881E-003  
  739.50  3.6481E-003  
  740.00  3.7014E-003  
  740.50  3.3170E-003  
  741.00  3.6094E-003  
  741.50  4.1288E-003  
  742.00  4.4305E-003  
  742.50  4.1283E-003  
  743.00  3.5110E-003  
  743.50  3.1880E-003  
  744.00  3.0422E-003  
  744.50  2.8458E-003  
  745.00  2.9610E-003  
  745.50  2.9891E-003  
  746.00  2.5110E-003  
  746.50  2.4175E-003  
  747.00  2.7370E-003  
  747.50  3.0477E-003  
  748.00  2.4741E-003  
  748.50  1.9543E-003  
  749.00  1.9890E-003  
  749.50  2.4613E-003  
  750.00  2.8030E-003  
  750.50  3.0428E-003  
  751.00  3.5492E-003  
  751.50  3.5624E-003  
  752.00  3.3245E-003  
  752.50  3.1646E-003  
  753.00  2.7887E-003  
  753.50  2.6167E-003  
  754.00  2.2651E-003  
  754.50  2.3471E-003  
  755.00  1.9634E-003  
  755.50  1.9988E-003  
  756.00  2.3029E-003  
  756.50  2.5903E-003  
  757.00  2.4428E-003  
  757.50  2.3349E-003  
  758.00  2.4721E-003  
  758.50  2.4316E-003  
  759.00  2.0461E-003  
  759.50  1.6028E-003  
  760.00  1.4709E-003  
  760.50  1.6299E-003  
  761.00  1.7084E-003  
  761.50  1.6365E-003  
  762.00  1.9986E-003  
  762.50  2.1781E-003  
  763.00  1.9040E-003  
  763.50  2.0371E-003  
  764.00  1.9113E-003  
  764.50  2.0217E-003  
  765.00  1.8081E-003  
  765.50  1.8030E-003  
  766.00  1.6298E-003  
  766.50  1.4955E-003  
  767.00  7.0657E-004  
  767.50  1.2652E-005  
  768.00  0.0000E+000  
  768.50  0.0000E+000  
  769.00  4.7952E-004  
  769.50  1.4243E-003  
  770.00  1.6902E-003  
  770.50  2.4961E-003  
  771.00  2.1936E-003  
  771.50  1.6413E-003  
  772.00  1.5521E-003  
  772.50  2.0780E-003  
  773.00  1.8527E-003  
  773.50  1.0646E-003  
  774.00  5.1475E-004  
  774.50  5.1131E-004  
  775.00  5.2130E-004  
  775.50  4.3766E-004  
  776.00  1.0831E-003  
  776.50  1.3949E-003  
  777.00  1.3097E-003  
  777.50  7.4140E-004  
  778.00  7.7137E-004  
  778.50  1.3578E-003  
  779.00  1.0938E-003  
  779.50  5.4301E-004  
  780.00  3.8830E-004  
  780.50  1.6151E-003  
  781.00  1.9620E-003  
  781.50  1.3074E-003  
  782.00  1.8216E-004  
  782.50  1.5976E-004  
  783.00  4.0810E-004  
  783.50  1.8665E-005  
  784.00  0.0000E+000  
  784.50  4.6134E-004  
  785.00  1.4403E-003  
  785.50  1.8006E-003  
  786.00  1.3224E-003  
  786.50  1.0930E-003  
  787.00  1.4741E-003  
  787.50  2.0583E-003  
  788.00  1.4520E-003  
  788.50  6.6757E-004  
  789.00  1.8125E-004  
  789.50  3.0712E-004  
  790.00  8.3611E-004  
  790.50  5.9299E-004  
  791.00  0.0000E+000  
  791.50  0.0000E+000  
  792.00  3.6918E-005  
  792.50  8.3263E-004  
  793.00  1.2920E-003  
  793.50  2.5420E-003  
  794.00  3.9150E-003  
  794.50  3.3412E-003  
  795.00  1.4632E-003  
  795.50  6.1689E-004  
  796.00  1.0443E-003  
  796.50  9.5634E-004  
  797.00  4.5878E-004  
  797.50  0.0000E+000  
  798.00  0.0000E+000  
  798.50  1.5741E-005  
  799.00  9.5404E-004  
  799.50  1.2939E-003  
  800.00  8.8882E-004  
  800.50  1.1487E-003  
  801.00  1.5886E-003  
  801.50  1.5373E-003  
  802.00  1.1917E-003  
  802.50  1.8709E-004  
  803.00  0.0000E+000  
  803.50  0.0000E+000  
  804.00  0.0000E+000  
  804.50  0.0000E+000  
  805.00  0.0000E+000  
  805.50  0.0000E+000  
  806.00  0.0000E+000  
  806.50  0.0000E+000  
  807.00  0.0000E+000  
  807.50  4.2496E-005  
  808.00  2.0166E-004  
  808.50  6.4037E-004  
  809.00  1.5344E-004  
  809.50  1.5182E-006  
  810.00  0.0000E+000  
  810.50  7.2972E-004  
  811.00  3.3672E-004  
  811.50  0.0000E+000  
  812.00  0.0000E+000  
  812.50  0.0000E+000  
  813.00  0.0000E+000  
  813.50  0.0000E+000  
  814.00  0.0000E+000  
  814.50  0.0000E+000  
  815.00  0.0000E+000  
  815.50  0.0000E+000  
  816.00  0.0000E+000  
  816.50  4.3221E-005  
  817.00  1.0943E-005  
  817.50  5.8768E-004  
  818.00  7.9755E-004  
  818.50  8.2274E-005  
  819.00  1.0213E-007  
  819.50  0.0000E+000  
  820.00  0.0000E+000  
  820.50  0.0000E+000  
  821.00  0.0000E+000  
  821.50  0.0000E+000  
  822.00  0.0000E+000  
  822.50  0.0000E+000  
  823.00  0.0000E+000  
  823.50  0.0000E+000  
  824.00  0.0000E+000  
  824.50  0.0000E+000  
  825.00  0.0000E+000  
  825.50  0.0000E+000  
  826.00  6.2378E-004  
  826.50  6.8100E-005  
  827.00  0.0000E+000  
  827.50  0.0000E+000  
  828.00  0.0000E+000  
  828.50  0.0000E+000  
  829.00  0.0000E+000  
  829.50  0.0000E+000  
  830.00  0.0000E+000  
  830.50  0.0000E+000  
  831.00  0.0000E+000  
  831.50  0.0000E+000  
  832.00  0.0000E+000  
  832.50  0.0000E+000  
  833.00  3.3023E-004  
  833.50  4.7473E-005  
  834.00  0.0000E+000  
  834.50  0.0000E+000  
  835.00  0.0000E+000  
  835.50  0.0000E+000  
  836.00  0.0000E+000  
  836.50  0.0000E+000  
  837.00  0.0000E+000  
  837.50  0.0000E+000  
  838.00  6.0545E-004  
  838.50  1.0608E-003  
  839.00  0.0000E+000  
  839.50  0.0000E+000  
  840.00  0.0000E+000  
  840.50  0.0000E+000  
  841.00  0.0000E+000  
  841.50  0.0000E+000  
  842.00  0.0000E+000  
  842.50  0.0000E+000  
  843.00  0.0000E+000  
  843.50  0.0000E+000  
  844.00  0.0000E+000  
  844.50  0.0000E+000  
  845.00  0.0000E+000  
  845.50  0.0000E+000  
  846.00  0.0000E+000  
  846.50  0.0000E+000  
  847.00  0.0000E+000  
  847.50  0.0000E+000  
  848.00  0.0000E+000  
  848.50  0.0000E+000  
  849.00  0.0000E+000  
  849.50  1.1159E-003  
  850.00  1.3831E-003  
  850.50  0.0000E+000  
  851.00  0.0000E+000  
  851.50  0.0000E+000  
  852.00  0.0000E+000  
  852.50  4.3237E-004  
  853.00  2.1200E-003  
  853.50  6.3473E-004  
  854.00  0.0000E+000  
  854.50  0.0000E+000  
  855.00  0.0000E+000  
  855.50  0.0000E+000  
  856.00  0.0000E+000  
  856.50  0.0000E+000  
  857.00  3.7476E-005  
  857.50  0.0000E+000  
  858.00  0.0000E+000  
  858.50  0.0000E+000  
  859.00  9.2561E-005  
  859.50  6.1614E-005  
  860.00  0.0000E+000  
  860.50  2.1473E-004  
  861.00  0.0000E+000  
  861.50  1.0860E-003  
  862.00  1.6008E-003  
  862.50  2.1590E-003  
  863.00  5.6855E-004  
  863.50  0.0000E+000  
  864.00  0.0000E+000  
  864.50  0.0000E+000  
  865.00  0.0000E+000  
  865.50  0.0000E+000  
  866.00  0.0000E+000  
  866.50  0.0000E+000  
  867.00  0.0000E+000  
  867.50  0.0000E+000  
  868.00  0.0000E+000  
  868.50  0.0000E+000  
  869.00  8.4919E-005  
  869.50  1.9825E-004  
  870.00  2.9040E-005  
  870.50  0.0000E+000  
  871.00  0.0000E+000  
  871.50  0.0000E+000  
  872.00  0.0000E+000  
  872.50  0.0000E+000  
  873.00  0.0000E+000  
  873.50  7.0265E-004  
  874.00  3.3885E-003  
  874.50  6.6857E-004  
  875.00  0.0000E+000  
  875.50  0.0000E+000  
  876.00  0.0000E+000  
  876.50  0.0000E+000  
  877.00  0.0000E+000  
  877.50  0.0000E+000  
  878.00  1.5293E-004  
  878.50  1.5395E-003  
  879.00  2.4610E-004  
  879.50  0.0000E+000  
  880.00  0.0000E+000  
  880.50  0.0000E+000  
  881.00  0.0000E+000  
  881.50  0.0000E+000  
  882.00  0.0000E+000  
  882.50  2.7266E-004  
  883.00  2.2825E-003  
  883.50  9.5855E-004  
  884.00  0.0000E+000  
  884.50  0.0000E+000  
  885.00  0.0000E+000  
  885.50  0.0000E+000  
  886.00  0.0000E+000  
  886.50  0.0000E+000  
  887.00  1.3382E-004  
  887.50  4.4844E-004  
  888.00  0.0000E+000  
  888.50  1.8001E-005  
  889.00  0.0000E+000  
  889.50  0.0000E+000  
  890.00  1.0910E-004  
  890.50  0.0000E+000  
  891.00  0.0000E+000  
  891.50  0.0000E+000  
  892.00  4.0774E-003  
  892.50  4.9423E-003  
  893.00  1.1382E-003  
  893.50  0.0000E+000  
  894.00  0.0000E+000  
  894.50  0.0000E+000  
  895.00  0.0000E+000  
  895.50  0.0000E+000  
  896.00  0.0000E+000  
  896.50  0.0000E+000  
  897.00  0.0000E+000  
  897.50  0.0000E+000  
  898.00  0.0000E+000  
  898.50  0.0000E+000  
  899.00  4.0747E-003  
  899.50  8.5867E-005  
