
# From lspdd.org
# 
# Name: LED-Lot4-L3 QCPassed A19 -
# Indice spectral Valeur 
# MSI 0.06 
# SLI 0.19 
# IPI 0.83 
# Pourcentage de bleu 2.3 
# Caractéristique Valeur 
# CCT calculée (K) 1516 
# CCT du fabricant (K) 1500 
# Tension (V) 100 
# Puissance (W) 7.0 
# Efficacité lumineuse (Lum/W) ND 
#
# Image: '/app/system/img_1s/2791/medium_image1.JPG?1633620765'
# 

  273.00  0.0000E+000  
  273.50  0.0000E+000  
  274.00  0.0000E+000  
  274.50  0.0000E+000  
  275.00  0.0000E+000  
  275.50  0.0000E+000  
  276.00  0.0000E+000  
  276.50  0.0000E+000  
  277.00  0.0000E+000  
  277.50  0.0000E+000  
  278.00  0.0000E+000  
  278.50  0.0000E+000  
  279.00  0.0000E+000  
  279.50  0.0000E+000  
  280.00  0.0000E+000  
  280.50  0.0000E+000  
  281.00  0.0000E+000  
  281.50  0.0000E+000  
  282.00  0.0000E+000  
  282.50  0.0000E+000  
  283.00  0.0000E+000  
  283.50  0.0000E+000  
  284.00  0.0000E+000  
  284.50  0.0000E+000  
  285.00  0.0000E+000  
  285.50  0.0000E+000  
  286.00  0.0000E+000  
  286.50  0.0000E+000  
  287.00  0.0000E+000  
  287.50  0.0000E+000  
  288.00  0.0000E+000  
  288.50  0.0000E+000  
  289.00  0.0000E+000  
  289.50  0.0000E+000  
  290.00  0.0000E+000  
  290.50  0.0000E+000  
  291.00  0.0000E+000  
  291.50  0.0000E+000  
  292.00  0.0000E+000  
  292.50  0.0000E+000  
  293.00  0.0000E+000  
  293.50  0.0000E+000  
  294.00  0.0000E+000  
  294.50  0.0000E+000  
  295.00  0.0000E+000  
  295.50  0.0000E+000  
  296.00  0.0000E+000  
  296.50  0.0000E+000  
  297.00  0.0000E+000  
  297.50  0.0000E+000  
  298.00  0.0000E+000  
  298.50  0.0000E+000  
  299.00  0.0000E+000  
  299.50  0.0000E+000  
  300.00  0.0000E+000  
  300.50  0.0000E+000  
  301.00  0.0000E+000  
  301.50  9.5037E-005  
  302.00  7.7632E-005  
  302.50  7.1769E-006  
  303.00  0.0000E+000  
  303.50  0.0000E+000  
  304.00  0.0000E+000  
  304.50  0.0000E+000  
  305.00  0.0000E+000  
  305.50  0.0000E+000  
  306.00  0.0000E+000  
  306.50  0.0000E+000  
  307.00  0.0000E+000  
  307.50  0.0000E+000  
  308.00  0.0000E+000  
  308.50  0.0000E+000  
  309.00  3.0859E-006  
  309.50  6.1771E-005  
  310.00  0.0000E+000  
  310.50  0.0000E+000  
  311.00  0.0000E+000  
  311.50  0.0000E+000  
  312.00  0.0000E+000  
  312.50  0.0000E+000  
  313.00  0.0000E+000  
  313.50  0.0000E+000  
  314.00  0.0000E+000  
  314.50  0.0000E+000  
  315.00  0.0000E+000  
  315.50  0.0000E+000  
  316.00  0.0000E+000  
  316.50  0.0000E+000  
  317.00  0.0000E+000  
  317.50  0.0000E+000  
  318.00  0.0000E+000  
  318.50  0.0000E+000  
  319.00  0.0000E+000  
  319.50  0.0000E+000  
  320.00  0.0000E+000  
  320.50  0.0000E+000  
  321.00  0.0000E+000  
  321.50  0.0000E+000  
  322.00  0.0000E+000  
  322.50  0.0000E+000  
  323.00  0.0000E+000  
  323.50  0.0000E+000  
  324.00  0.0000E+000  
  324.50  0.0000E+000  
  325.00  0.0000E+000  
  325.50  0.0000E+000  
  326.00  0.0000E+000  
  326.50  0.0000E+000  
  327.00  0.0000E+000  
  327.50  0.0000E+000  
  328.00  0.0000E+000  
  328.50  0.0000E+000  
  329.00  0.0000E+000  
  329.50  0.0000E+000  
  330.00  0.0000E+000  
  330.50  0.0000E+000  
  331.00  0.0000E+000  
  331.50  0.0000E+000  
  332.00  0.0000E+000  
  332.50  0.0000E+000  
  333.00  0.0000E+000  
  333.50  0.0000E+000  
  334.00  0.0000E+000  
  334.50  0.0000E+000  
  335.00  0.0000E+000  
  335.50  0.0000E+000  
  336.00  0.0000E+000  
  336.50  0.0000E+000  
  337.00  0.0000E+000  
  337.50  0.0000E+000  
  338.00  0.0000E+000  
  338.50  0.0000E+000  
  339.00  0.0000E+000  
  339.50  0.0000E+000  
  340.00  0.0000E+000  
  340.50  0.0000E+000  
  341.00  0.0000E+000  
  341.50  0.0000E+000  
  342.00  0.0000E+000  
  342.50  0.0000E+000  
  343.00  0.0000E+000  
  343.50  0.0000E+000  
  344.00  0.0000E+000  
  344.50  0.0000E+000  
  345.00  0.0000E+000  
  345.50  0.0000E+000  
  346.00  0.0000E+000  
  346.50  0.0000E+000  
  347.00  0.0000E+000  
  347.50  0.0000E+000  
  348.00  0.0000E+000  
  348.50  0.0000E+000  
  349.00  0.0000E+000  
  349.50  0.0000E+000  
  350.00  0.0000E+000  
  350.50  0.0000E+000  
  351.00  0.0000E+000  
  351.50  0.0000E+000  
  352.00  0.0000E+000  
  352.50  0.0000E+000  
  353.00  0.0000E+000  
  353.50  0.0000E+000  
  354.00  0.0000E+000  
  354.50  0.0000E+000  
  355.00  0.0000E+000  
  355.50  0.0000E+000  
  356.00  0.0000E+000  
  356.50  0.0000E+000  
  357.00  0.0000E+000  
  357.50  0.0000E+000  
  358.00  0.0000E+000  
  358.50  0.0000E+000  
  359.00  0.0000E+000  
  359.50  0.0000E+000  
  360.00  0.0000E+000  
  360.50  0.0000E+000  
  361.00  0.0000E+000  
  361.50  0.0000E+000  
  362.00  0.0000E+000  
  362.50  0.0000E+000  
  363.00  0.0000E+000  
  363.50  0.0000E+000  
  364.00  0.0000E+000  
  364.50  0.0000E+000  
  365.00  0.0000E+000  
  365.50  0.0000E+000  
  366.00  0.0000E+000  
  366.50  0.0000E+000  
  367.00  0.0000E+000  
  367.50  0.0000E+000  
  368.00  0.0000E+000  
  368.50  0.0000E+000  
  369.00  0.0000E+000  
  369.50  0.0000E+000  
  370.00  0.0000E+000  
  370.50  0.0000E+000  
  371.00  0.0000E+000  
  371.50  0.0000E+000  
  372.00  0.0000E+000  
  372.50  0.0000E+000  
  373.00  0.0000E+000  
  373.50  0.0000E+000  
  374.00  0.0000E+000  
  374.50  0.0000E+000  
  375.00  0.0000E+000  
  375.50  0.0000E+000  
  376.00  0.0000E+000  
  376.50  0.0000E+000  
  377.00  0.0000E+000  
  377.50  0.0000E+000  
  378.00  0.0000E+000  
  378.50  0.0000E+000  
  379.00  0.0000E+000  
  379.50  0.0000E+000  
  380.00  0.0000E+000  
  380.50  0.0000E+000  
  381.00  0.0000E+000  
  381.50  0.0000E+000  
  382.00  0.0000E+000  
  382.50  0.0000E+000  
  383.00  0.0000E+000  
  383.50  0.0000E+000  
  384.00  0.0000E+000  
  384.50  0.0000E+000  
  385.00  0.0000E+000  
  385.50  0.0000E+000  
  386.00  0.0000E+000  
  386.50  0.0000E+000  
  387.00  0.0000E+000  
  387.50  0.0000E+000  
  388.00  0.0000E+000  
  388.50  0.0000E+000  
  389.00  0.0000E+000  
  389.50  0.0000E+000  
  390.00  0.0000E+000  
  390.50  0.0000E+000  
  391.00  0.0000E+000  
  391.50  0.0000E+000  
  392.00  0.0000E+000  
  392.50  0.0000E+000  
  393.00  0.0000E+000  
  393.50  0.0000E+000  
  394.00  0.0000E+000  
  394.50  0.0000E+000  
  395.00  0.0000E+000  
  395.50  0.0000E+000  
  396.00  0.0000E+000  
  396.50  0.0000E+000  
  397.00  0.0000E+000  
  397.50  0.0000E+000  
  398.00  0.0000E+000  
  398.50  0.0000E+000  
  399.00  0.0000E+000  
  399.50  0.0000E+000  
  400.00  0.0000E+000  
  400.50  0.0000E+000  
  401.00  0.0000E+000  
  401.50  0.0000E+000  
  402.00  0.0000E+000  
  402.50  0.0000E+000  
  403.00  0.0000E+000  
  403.50  0.0000E+000  
  404.00  0.0000E+000  
  404.50  0.0000E+000  
  405.00  0.0000E+000  
  405.50  0.0000E+000  
  406.00  0.0000E+000  
  406.50  0.0000E+000  
  407.00  0.0000E+000  
  407.50  0.0000E+000  
  408.00  6.2822E-005  
  408.50  1.6422E-004  
  409.00  7.2295E-005  
  409.50  0.0000E+000  
  410.00  0.0000E+000  
  410.50  0.0000E+000  
  411.00  0.0000E+000  
  411.50  0.0000E+000  
  412.00  1.1763E-005  
  412.50  4.0757E-006  
  413.00  0.0000E+000  
  413.50  0.0000E+000  
  414.00  0.0000E+000  
  414.50  0.0000E+000  
  415.00  0.0000E+000  
  415.50  0.0000E+000  
  416.00  0.0000E+000  
  416.50  0.0000E+000  
  417.00  0.0000E+000  
  417.50  0.0000E+000  
  418.00  0.0000E+000  
  418.50  0.0000E+000  
  419.00  0.0000E+000  
  419.50  0.0000E+000  
  420.00  0.0000E+000  
  420.50  0.0000E+000  
  421.00  0.0000E+000  
  421.50  1.2840E-005  
  422.00  3.9294E-004  
  422.50  7.3246E-004  
  423.00  7.9150E-004  
  423.50  5.8611E-004  
  424.00  2.1009E-004  
  424.50  0.0000E+000  
  425.00  6.2484E-005  
  425.50  1.2205E-004  
  426.00  3.8021E-004  
  426.50  7.3603E-004  
  427.00  7.5271E-004  
  427.50  8.1714E-004  
  428.00  7.4834E-004  
  428.50  7.3575E-004  
  429.00  9.8372E-004  
  429.50  9.2778E-004  
  430.00  6.3532E-004  
  430.50  2.3049E-004  
  431.00  1.6627E-004  
  431.50  2.8217E-004  
  432.00  3.4537E-004  
  432.50  4.5919E-004  
  433.00  4.7591E-004  
  433.50  6.5437E-004  
  434.00  6.4200E-004  
  434.50  7.7261E-004  
  435.00  1.0498E-003  
  435.50  1.2409E-003  
  436.00  1.4710E-003  
  436.50  1.3331E-003  
  437.00  1.1020E-003  
  437.50  9.8120E-004  
  438.00  1.0288E-003  
  438.50  1.1686E-003  
  439.00  1.2253E-003  
  439.50  1.1362E-003  
  440.00  1.0803E-003  
  440.50  1.0126E-003  
  441.00  8.5689E-004  
  441.50  6.8480E-004  
  442.00  5.8365E-004  
  442.50  7.3043E-004  
  443.00  9.1695E-004  
  443.50  8.5820E-004  
  444.00  7.3396E-004  
  444.50  3.9787E-004  
  445.00  2.9926E-004  
  445.50  5.3097E-004  
  446.00  9.0756E-004  
  446.50  1.1550E-003  
  447.00  1.0719E-003  
  447.50  9.3862E-004  
  448.00  6.6762E-004  
  448.50  4.4578E-004  
  449.00  1.1648E-004  
  449.50  0.0000E+000  
  450.00  2.4795E-005  
  450.50  1.6284E-004  
  451.00  1.6115E-004  
  451.50  2.1014E-004  
  452.00  2.2759E-004  
  452.50  2.2827E-004  
  453.00  3.2340E-004  
  453.50  1.6179E-004  
  454.00  0.0000E+000  
  454.50  0.0000E+000  
  455.00  0.0000E+000  
  455.50  0.0000E+000  
  456.00  0.0000E+000  
  456.50  0.0000E+000  
  457.00  0.0000E+000  
  457.50  0.0000E+000  
  458.00  0.0000E+000  
  458.50  0.0000E+000  
  459.00  0.0000E+000  
  459.50  4.6503E-005  
  460.00  2.0650E-004  
  460.50  2.2100E-004  
  461.00  4.4031E-005  
  461.50  0.0000E+000  
  462.00  0.0000E+000  
  462.50  0.0000E+000  
  463.00  0.0000E+000  
  463.50  5.2985E-005  
  464.00  2.4282E-004  
  464.50  3.2604E-004  
  465.00  2.1179E-004  
  465.50  2.1636E-004  
  466.00  6.6257E-006  
  466.50  9.6917E-006  
  467.00  3.9855E-006  
  467.50  0.0000E+000  
  468.00  7.5800E-006  
  468.50  0.0000E+000  
  469.00  7.3804E-005  
  469.50  2.5714E-004  
  470.00  3.6915E-004  
  470.50  3.5309E-004  
  471.00  3.0297E-004  
  471.50  2.7663E-004  
  472.00  2.3977E-004  
  472.50  1.9647E-004  
  473.00  5.2652E-006  
  473.50  0.0000E+000  
  474.00  2.7429E-006  
  474.50  1.4978E-004  
  475.00  2.5104E-004  
  475.50  1.6843E-004  
  476.00  2.0034E-005  
  476.50  0.0000E+000  
  477.00  0.0000E+000  
  477.50  0.0000E+000  
  478.00  0.0000E+000  
  478.50  1.6317E-005  
  479.00  6.1511E-005  
  479.50  1.0459E-004  
  480.00  1.3452E-004  
  480.50  1.3150E-004  
  481.00  1.8798E-004  
  481.50  2.2469E-004  
  482.00  2.8701E-004  
  482.50  2.7322E-004  
  483.00  2.4764E-004  
  483.50  2.1446E-004  
  484.00  2.4427E-004  
  484.50  1.4519E-004  
  485.00  1.0575E-004  
  485.50  1.7246E-004  
  486.00  1.9365E-004  
  486.50  1.8800E-004  
  487.00  2.3548E-005  
  487.50  0.0000E+000  
  488.00  0.0000E+000  
  488.50  0.0000E+000  
  489.00  3.9226E-005  
  489.50  1.1619E-004  
  490.00  2.7282E-004  
  490.50  4.3506E-004  
  491.00  5.6306E-004  
  491.50  6.1271E-004  
  492.00  5.3631E-004  
  492.50  4.0199E-004  
  493.00  4.0531E-004  
  493.50  4.4413E-004  
  494.00  4.6433E-004  
  494.50  5.0999E-004  
  495.00  4.6682E-004  
  495.50  5.5122E-004  
  496.00  7.1638E-004  
  496.50  1.0276E-003  
  497.00  1.3041E-003  
  497.50  1.4158E-003  
  498.00  1.3374E-003  
  498.50  1.1101E-003  
  499.00  1.0084E-003  
  499.50  1.1122E-003  
  500.00  1.3662E-003  
  500.50  1.6401E-003  
  501.00  1.7933E-003  
  501.50  1.8651E-003  
  502.00  2.0223E-003  
  502.50  2.1471E-003  
  503.00  2.1539E-003  
  503.50  2.0883E-003  
  504.00  2.1339E-003  
  504.50  2.3451E-003  
  505.00  2.5184E-003  
  505.50  2.6479E-003  
  506.00  2.7239E-003  
  506.50  2.6942E-003  
  507.00  2.8953E-003  
  507.50  2.9744E-003  
  508.00  3.3024E-003  
  508.50  3.5517E-003  
  509.00  3.8016E-003  
  509.50  3.9447E-003  
  510.00  3.9924E-003  
  510.50  4.0292E-003  
  511.00  4.1024E-003  
  511.50  4.2657E-003  
  512.00  4.5811E-003  
  512.50  4.8694E-003  
  513.00  5.0861E-003  
  513.50  5.2548E-003  
  514.00  5.3421E-003  
  514.50  5.4138E-003  
  515.00  5.4107E-003  
  515.50  5.5028E-003  
  516.00  5.6249E-003  
  516.50  5.8217E-003  
  517.00  6.0099E-003  
  517.50  6.0616E-003  
  518.00  6.1476E-003  
  518.50  6.3301E-003  
  519.00  6.5425E-003  
  519.50  6.7963E-003  
  520.00  6.9361E-003  
  520.50  7.1331E-003  
  521.00  7.3079E-003  
  521.50  7.5305E-003  
  522.00  7.6072E-003  
  522.50  7.7338E-003  
  523.00  7.8571E-003  
  523.50  8.0985E-003  
  524.00  8.1919E-003  
  524.50  8.2133E-003  
  525.00  8.2985E-003  
  525.50  8.5048E-003  
  526.00  8.7371E-003  
  526.50  8.8238E-003  
  527.00  8.8959E-003  
  527.50  9.0589E-003  
  528.00  9.3008E-003  
  528.50  9.5590E-003  
  529.00  9.7067E-003  
  529.50  9.8398E-003  
  530.00  1.0014E-002  
  530.50  1.0077E-002  
  531.00  1.0210E-002  
  531.50  1.0212E-002  
  532.00  1.0234E-002  
  532.50  1.0354E-002  
  533.00  1.0427E-002  
  533.50  1.0603E-002  
  534.00  1.0907E-002  
  534.50  1.1181E-002  
  535.00  1.1454E-002  
  535.50  1.1499E-002  
  536.00  1.1337E-002  
  536.50  1.1276E-002  
  537.00  1.1369E-002  
  537.50  1.1579E-002  
  538.00  1.1770E-002  
  538.50  1.1888E-002  
  539.00  1.2099E-002  
  539.50  1.2305E-002  
  540.00  1.2368E-002  
  540.50  1.2530E-002  
  541.00  1.2697E-002  
  541.50  1.2880E-002  
  542.00  1.2979E-002  
  542.50  1.3079E-002  
  543.00  1.3157E-002  
  543.50  1.3465E-002  
  544.00  1.3688E-002  
  544.50  1.3885E-002  
  545.00  1.3906E-002  
  545.50  1.3859E-002  
  546.00  1.3963E-002  
  546.50  1.4145E-002  
  547.00  1.4494E-002  
  547.50  1.4738E-002  
  548.00  1.4936E-002  
  548.50  1.5161E-002  
  549.00  1.5510E-002  
  549.50  1.5875E-002  
  550.00  1.6092E-002  
  550.50  1.6105E-002  
  551.00  1.6170E-002  
  551.50  1.6274E-002  
  552.00  1.6553E-002  
  552.50  1.6907E-002  
  553.00  1.7270E-002  
  553.50  1.7588E-002  
  554.00  1.7933E-002  
  554.50  1.8169E-002  
  555.00  1.8441E-002  
  555.50  1.8628E-002  
  556.00  1.8765E-002  
  556.50  1.9005E-002  
  557.00  1.9072E-002  
  557.50  1.9277E-002  
  558.00  1.9457E-002  
  558.50  1.9985E-002  
  559.00  2.0502E-002  
  559.50  2.0934E-002  
  560.00  2.1348E-002  
  560.50  2.1652E-002  
  561.00  2.2130E-002  
  561.50  2.2429E-002  
  562.00  2.2784E-002  
  562.50  2.3293E-002  
  563.00  2.3803E-002  
  563.50  2.4291E-002  
  564.00  2.4576E-002  
  564.50  2.4937E-002  
  565.00  2.5410E-002  
  565.50  2.5969E-002  
  566.00  2.6402E-002  
  566.50  2.6771E-002  
  567.00  2.7023E-002  
  567.50  2.7339E-002  
  568.00  2.7789E-002  
  568.50  2.8378E-002  
  569.00  2.8947E-002  
  569.50  2.9514E-002  
  570.00  3.0087E-002  
  570.50  3.0939E-002  
  571.00  3.1672E-002  
  571.50  3.2068E-002  
  572.00  3.2199E-002  
  572.50  3.2512E-002  
  573.00  3.3221E-002  
  573.50  3.4154E-002  
  574.00  3.4877E-002  
  574.50  3.5586E-002  
  575.00  3.6212E-002  
  575.50  3.6943E-002  
  576.00  3.7513E-002  
  576.50  3.8241E-002  
  577.00  3.9057E-002  
  577.50  3.9876E-002  
  578.00  4.0586E-002  
  578.50  4.1322E-002  
  579.00  4.1916E-002  
  579.50  4.2534E-002  
  580.00  4.3199E-002  
  580.50  4.4063E-002  
  581.00  4.5192E-002  
  581.50  4.6081E-002  
  582.00  4.6719E-002  
  582.50  4.7528E-002  
  583.00  4.8167E-002  
  583.50  4.9054E-002  
  584.00  4.9743E-002  
  584.50  5.0487E-002  
  585.00  5.1408E-002  
  585.50  5.2055E-002  
  586.00  5.2835E-002  
  586.50  5.3641E-002  
  587.00  5.4779E-002  
  587.50  5.5911E-002  
  588.00  5.6807E-002  
  588.50  5.7463E-002  
  589.00  5.8192E-002  
  589.50  5.9157E-002  
  590.00  6.0074E-002  
  590.50  6.1190E-002  
  591.00  6.1839E-002  
  591.50  6.2609E-002  
  592.00  6.3231E-002  
  592.50  6.3967E-002  
  593.00  6.4978E-002  
  593.50  6.5911E-002  
  594.00  6.7198E-002  
  594.50  6.8333E-002  
  595.00  6.9333E-002  
  595.50  7.0035E-002  
  596.00  7.0604E-002  
  596.50  7.1115E-002  
  597.00  7.1577E-002  
  597.50  7.2164E-002  
  598.00  7.2824E-002  
  598.50  7.3713E-002  
  599.00  7.4553E-002  
  599.50  7.5272E-002  
  600.00  7.5812E-002  
  600.50  7.6482E-002  
  601.00  7.7112E-002  
  601.50  7.7906E-002  
  602.00  7.8526E-002  
  602.50  7.9244E-002  
  603.00  7.9625E-002  
  603.50  7.9873E-002  
  604.00  8.0020E-002  
  604.50  8.0509E-002  
  605.00  8.1235E-002  
  605.50  8.1864E-002  
  606.00  8.2398E-002  
  606.50  8.2719E-002  
  607.00  8.3304E-002  
  607.50  8.3988E-002  
  608.00  8.4756E-002  
  608.50  8.5324E-002  
  609.00  8.5460E-002  
  609.50  8.5639E-002  
  610.00  8.5783E-002  
  610.50  8.6096E-002  
  611.00  8.6316E-002  
  611.50  8.6584E-002  
  612.00  8.6760E-002  
  612.50  8.6688E-002  
  613.00  8.6572E-002  
  613.50  8.6880E-002  
  614.00  8.7631E-002  
  614.50  8.8015E-002  
  615.00  8.7810E-002  
  615.50  8.7749E-002  
  616.00  8.8095E-002  
  616.50  8.8737E-002  
  617.00  8.8654E-002  
  617.50  8.8160E-002  
  618.00  8.7982E-002  
  618.50  8.8029E-002  
  619.00  8.8102E-002  
  619.50  8.8071E-002  
  620.00  8.7906E-002  
  620.50  8.7939E-002  
  621.00  8.8300E-002  
  621.50  8.8655E-002  
  622.00  8.8881E-002  
  622.50  8.8789E-002  
  623.00  8.8309E-002  
  623.50  8.7866E-002  
  624.00  8.7401E-002  
  624.50  8.7008E-002  
  625.00  8.6559E-002  
  625.50  8.6030E-002  
  626.00  8.5592E-002  
  626.50  8.5809E-002  
  627.00  8.5507E-002  
  627.50  8.5116E-002  
  628.00  8.4475E-002  
  628.50  8.4043E-002  
  629.00  8.3947E-002  
  629.50  8.3939E-002  
  630.00  8.3979E-002  
  630.50  8.3969E-002  
  631.00  8.3687E-002  
  631.50  8.3401E-002  
  632.00  8.3202E-002  
  632.50  8.2627E-002  
  633.00  8.2015E-002  
  633.50  8.1379E-002  
  634.00  8.1311E-002  
  634.50  8.1424E-002  
  635.00  8.1192E-002  
  635.50  8.0300E-002  
  636.00  7.9281E-002  
  636.50  7.8657E-002  
  637.00  7.8416E-002  
  637.50  7.7915E-002  
  638.00  7.7240E-002  
  638.50  7.6382E-002  
  639.00  7.5879E-002  
  639.50  7.5471E-002  
  640.00  7.4805E-002  
  640.50  7.4277E-002  
  641.00  7.3829E-002  
  641.50  7.3433E-002  
  642.00  7.2888E-002  
  642.50  7.2358E-002  
  643.00  7.1847E-002  
  643.50  7.1507E-002  
  644.00  7.0626E-002  
  644.50  6.9919E-002  
  645.00  6.9399E-002  
  645.50  6.9138E-002  
  646.00  6.9396E-002  
  646.50  6.9250E-002  
  647.00  6.8793E-002  
  647.50  6.7788E-002  
  648.00  6.6867E-002  
  648.50  6.6181E-002  
  649.00  6.5640E-002  
  649.50  6.4935E-002  
  650.00  6.4459E-002  
  650.50  6.4190E-002  
  651.00  6.3610E-002  
  651.50  6.2795E-002  
  652.00  6.2157E-002  
  652.50  6.1780E-002  
  653.00  6.1314E-002  
  653.50  6.0190E-002  
  654.00  5.9206E-002  
  654.50  5.8502E-002  
  655.00  5.7956E-002  
  655.50  5.7445E-002  
  656.00  5.7047E-002  
  656.50  5.6828E-002  
  657.00  5.6476E-002  
  657.50  5.6025E-002  
  658.00  5.5244E-002  
  658.50  5.4300E-002  
  659.00  5.3627E-002  
  659.50  5.3417E-002  
  660.00  5.3406E-002  
  660.50  5.2789E-002  
  661.00  5.2010E-002  
  661.50  5.1382E-002  
  662.00  5.0802E-002  
  662.50  5.0184E-002  
  663.00  4.9246E-002  
  663.50  4.8404E-002  
  664.00  4.7667E-002  
  664.50  4.6765E-002  
  665.00  4.6121E-002  
  665.50  4.5242E-002  
  666.00  4.4683E-002  
  666.50  4.4155E-002  
  667.00  4.3990E-002  
  667.50  4.3908E-002  
  668.00  4.3666E-002  
  668.50  4.3008E-002  
  669.00  4.2379E-002  
  669.50  4.1553E-002  
  670.00  4.1115E-002  
  670.50  4.0825E-002  
  671.00  4.0657E-002  
  671.50  4.0255E-002  
  672.00  3.9702E-002  
  672.50  3.9109E-002  
  673.00  3.8272E-002  
  673.50  3.7547E-002  
  674.00  3.6901E-002  
  674.50  3.6591E-002  
  675.00  3.6172E-002  
  675.50  3.5797E-002  
  676.00  3.5376E-002  
  676.50  3.4754E-002  
  677.00  3.4186E-002  
  677.50  3.3716E-002  
  678.00  3.3409E-002  
  678.50  3.2948E-002  
  679.00  3.2196E-002  
  679.50  3.1444E-002  
  680.00  3.1128E-002  
  680.50  3.0604E-002  
  681.00  2.9993E-002  
  681.50  2.9248E-002  
  682.00  2.8958E-002  
  682.50  2.8797E-002  
  683.00  2.8622E-002  
  683.50  2.8147E-002  
  684.00  2.7642E-002  
  684.50  2.7012E-002  
  685.00  2.6766E-002  
  685.50  2.6703E-002  
  686.00  2.6438E-002  
  686.50  2.6114E-002  
  687.00  2.5540E-002  
  687.50  2.5516E-002  
  688.00  2.5152E-002  
  688.50  2.4884E-002  
  689.00  2.4165E-002  
  689.50  2.3807E-002  
  690.00  2.3454E-002  
  690.50  2.3385E-002  
  691.00  2.3254E-002  
  691.50  2.2975E-002  
  692.00  2.2384E-002  
  692.50  2.2226E-002  
  693.00  2.2028E-002  
  693.50  2.1667E-002  
  694.00  2.0992E-002  
  694.50  2.0754E-002  
  695.00  2.0543E-002  
  695.50  2.0528E-002  
  696.00  2.0134E-002  
  696.50  1.9946E-002  
  697.00  1.9383E-002  
  697.50  1.8887E-002  
  698.00  1.8659E-002  
  698.50  1.8423E-002  
  699.00  1.8412E-002  
  699.50  1.8394E-002  
  700.00  1.8075E-002  
  700.50  1.7468E-002  
  701.00  1.6792E-002  
  701.50  1.6380E-002  
  702.00  1.6023E-002  
  702.50  1.5886E-002  
  703.00  1.5206E-002  
  703.50  1.4682E-002  
  704.00  1.4544E-002  
  704.50  1.4652E-002  
  705.00  1.4643E-002  
  705.50  1.4615E-002  
  706.00  1.4486E-002  
  706.50  1.4235E-002  
  707.00  1.3743E-002  
  707.50  1.3939E-002  
  708.00  1.3956E-002  
  708.50  1.3746E-002  
  709.00  1.3036E-002  
  709.50  1.2551E-002  
  710.00  1.2167E-002  
  710.50  1.1824E-002  
  711.00  1.1406E-002  
  711.50  1.1566E-002  
  712.00  1.1880E-002  
  712.50  1.1851E-002  
  713.00  1.1517E-002  
  713.50  1.1306E-002  
  714.00  1.1025E-002  
  714.50  1.0867E-002  
  715.00  1.0438E-002  
  715.50  9.9258E-003  
  716.00  9.4296E-003  
  716.50  9.1026E-003  
  717.00  9.1957E-003  
  717.50  9.2836E-003  
  718.00  9.2391E-003  
  718.50  8.6763E-003  
  719.00  8.3428E-003  
  719.50  8.2871E-003  
  720.00  8.5143E-003  
  720.50  8.7848E-003  
  721.00  8.7821E-003  
  721.50  8.2898E-003  
  722.00  7.9361E-003  
  722.50  8.0820E-003  
  723.00  8.1466E-003  
  723.50  7.9363E-003  
  724.00  7.7572E-003  
  724.50  7.9697E-003  
  725.00  7.7514E-003  
  725.50  7.5296E-003  
  726.00  7.3938E-003  
  726.50  7.6214E-003  
  727.00  7.4257E-003  
  727.50  7.0417E-003  
  728.00  6.9157E-003  
  728.50  6.8776E-003  
  729.00  6.6644E-003  
  729.50  5.9445E-003  
  730.00  5.0797E-003  
  730.50  4.7618E-003  
  731.00  5.2360E-003  
  731.50  5.8767E-003  
  732.00  6.1931E-003  
  732.50  6.2975E-003  
  733.00  6.5531E-003  
  733.50  6.2661E-003  
  734.00  5.9131E-003  
  734.50  5.6147E-003  
  735.00  5.2718E-003  
  735.50  4.7479E-003  
  736.00  4.6358E-003  
  736.50  4.8519E-003  
  737.00  4.6968E-003  
  737.50  4.7904E-003  
  738.00  4.4169E-003  
  738.50  4.3996E-003  
  739.00  4.2773E-003  
  739.50  4.2770E-003  
  740.00  3.8922E-003  
  740.50  3.2608E-003  
  741.00  3.2274E-003  
  741.50  3.6886E-003  
  742.00  3.8469E-003  
  742.50  3.5652E-003  
  743.00  3.3233E-003  
  743.50  3.6697E-003  
  744.00  4.2316E-003  
  744.50  3.9944E-003  
  745.00  3.5901E-003  
  745.50  3.2903E-003  
  746.00  3.2541E-003  
  746.50  3.1540E-003  
  747.00  3.1437E-003  
  747.50  3.0362E-003  
  748.00  2.5072E-003  
  748.50  2.0341E-003  
  749.00  2.4416E-003  
  749.50  3.1040E-003  
  750.00  3.6895E-003  
  750.50  3.9712E-003  
  751.00  4.1002E-003  
  751.50  3.7757E-003  
  752.00  3.5544E-003  
  752.50  3.8827E-003  
  753.00  3.4845E-003  
  753.50  2.8992E-003  
  754.00  2.4548E-003  
  754.50  2.6996E-003  
  755.00  2.3735E-003  
  755.50  2.2081E-003  
  756.00  2.3114E-003  
  756.50  2.6982E-003  
  757.00  2.4851E-003  
  757.50  2.2230E-003  
  758.00  2.2655E-003  
  758.50  2.5010E-003  
  759.00  2.6570E-003  
  759.50  2.3123E-003  
  760.00  1.7119E-003  
  760.50  1.6440E-003  
  761.00  1.9532E-003  
  761.50  2.1319E-003  
  762.00  2.2532E-003  
  762.50  2.4526E-003  
  763.00  1.9273E-003  
  763.50  1.8277E-003  
  764.00  1.4009E-003  
  764.50  1.5021E-003  
  765.00  1.4614E-003  
  765.50  1.0261E-003  
  766.00  2.7007E-004  
  766.50  1.9437E-004  
  767.00  1.2383E-004  
  767.50  0.0000E+000  
  768.00  0.0000E+000  
  768.50  1.9245E-004  
  769.00  6.3452E-004  
  769.50  5.3960E-004  
  770.00  9.0002E-004  
  770.50  2.1766E-003  
  771.00  2.5266E-003  
  771.50  1.8465E-003  
  772.00  1.2747E-003  
  772.50  9.9442E-004  
  773.00  9.3334E-004  
  773.50  7.8489E-004  
  774.00  4.5728E-004  
  774.50  7.5982E-004  
  775.00  7.1623E-004  
  775.50  9.6664E-004  
  776.00  1.5321E-003  
  776.50  1.7734E-003  
  777.00  1.7345E-003  
  777.50  7.5762E-004  
  778.00  1.0037E-003  
  778.50  1.0968E-003  
  779.00  5.2418E-004  
  779.50  0.0000E+000  
  780.00  0.0000E+000  
  780.50  3.1014E-004  
  781.00  8.8296E-004  
  781.50  4.6042E-004  
  782.00  0.0000E+000  
  782.50  0.0000E+000  
  783.00  0.0000E+000  
  783.50  3.1830E-004  
  784.00  1.3674E-003  
  784.50  2.1307E-003  
  785.00  2.0525E-003  
  785.50  5.2655E-004  
  786.00  0.0000E+000  
  786.50  0.0000E+000  
  787.00  9.6658E-007  
  787.50  2.6205E-004  
  788.00  5.9580E-004  
  788.50  2.5543E-004  
  789.00  1.5215E-004  
  789.50  0.0000E+000  
  790.00  5.8034E-005  
  790.50  0.0000E+000  
  791.00  0.0000E+000  
  791.50  0.0000E+000  
  792.00  0.0000E+000  
  792.50  3.8249E-004  
  793.00  1.5462E-003  
  793.50  2.5259E-003  
  794.00  2.9514E-003  
  794.50  2.2731E-003  
  795.00  9.9789E-004  
  795.50  3.6220E-004  
  796.00  2.1443E-004  
  796.50  0.0000E+000  
  797.00  0.0000E+000  
  797.50  0.0000E+000  
  798.00  0.0000E+000  
  798.50  0.0000E+000  
  799.00  0.0000E+000  
  799.50  0.0000E+000  
  800.00  0.0000E+000  
  800.50  9.5216E-005  
  801.00  8.2764E-004  
  801.50  1.3936E-003  
  802.00  1.1345E-003  
  802.50  5.6247E-004  
  803.00  0.0000E+000  
  803.50  0.0000E+000  
  804.00  0.0000E+000  
  804.50  0.0000E+000  
  805.00  0.0000E+000  
  805.50  0.0000E+000  
  806.00  0.0000E+000  
  806.50  0.0000E+000  
  807.00  0.0000E+000  
  807.50  0.0000E+000  
  808.00  0.0000E+000  
  808.50  0.0000E+000  
  809.00  0.0000E+000  
  809.50  0.0000E+000  
  810.00  0.0000E+000  
  810.50  0.0000E+000  
  811.00  0.0000E+000  
  811.50  0.0000E+000  
  812.00  0.0000E+000  
  812.50  0.0000E+000  
  813.00  0.0000E+000  
  813.50  0.0000E+000  
  814.00  0.0000E+000  
  814.50  0.0000E+000  
  815.00  0.0000E+000  
  815.50  0.0000E+000  
  816.00  0.0000E+000  
  816.50  0.0000E+000  
  817.00  0.0000E+000  
  817.50  0.0000E+000  
  818.00  0.0000E+000  
  818.50  0.0000E+000  
  819.00  0.0000E+000  
  819.50  0.0000E+000  
  820.00  0.0000E+000  
  820.50  0.0000E+000  
  821.00  0.0000E+000  
  821.50  0.0000E+000  
  822.00  0.0000E+000  
  822.50  0.0000E+000  
  823.00  0.0000E+000  
  823.50  0.0000E+000  
  824.00  0.0000E+000  
  824.50  0.0000E+000  
  825.00  0.0000E+000  
  825.50  0.0000E+000  
  826.00  0.0000E+000  
  826.50  0.0000E+000  
  827.00  0.0000E+000  
  827.50  0.0000E+000  
  828.00  0.0000E+000  
  828.50  0.0000E+000  
  829.00  0.0000E+000  
  829.50  0.0000E+000  
  830.00  0.0000E+000  
  830.50  0.0000E+000  
  831.00  0.0000E+000  
  831.50  0.0000E+000  
  832.00  0.0000E+000  
  832.50  0.0000E+000  
  833.00  0.0000E+000  
  833.50  0.0000E+000  
  834.00  0.0000E+000  
  834.50  0.0000E+000  
  835.00  0.0000E+000  
  835.50  0.0000E+000  
  836.00  0.0000E+000  
  836.50  0.0000E+000  
  837.00  0.0000E+000  
  837.50  0.0000E+000  
  838.00  0.0000E+000  
  838.50  1.2312E-003  
  839.00  8.6310E-004  
  839.50  0.0000E+000  
  840.00  0.0000E+000  
  840.50  0.0000E+000  
  841.00  0.0000E+000  
  841.50  1.1234E-004  
  842.00  6.3484E-004  
  842.50  0.0000E+000  
  843.00  0.0000E+000  
  843.50  0.0000E+000  
  844.00  0.0000E+000  
  844.50  0.0000E+000  
  845.00  0.0000E+000  
  845.50  0.0000E+000  
  846.00  0.0000E+000  
  846.50  0.0000E+000  
  847.00  0.0000E+000  
  847.50  0.0000E+000  
  848.00  0.0000E+000  
  848.50  0.0000E+000  
  849.00  0.0000E+000  
  849.50  0.0000E+000  
  850.00  0.0000E+000  
  850.50  0.0000E+000  
  851.00  0.0000E+000  
  851.50  0.0000E+000  
  852.00  0.0000E+000  
  852.50  0.0000E+000  
  853.00  0.0000E+000  
  853.50  5.9428E-005  
  854.00  0.0000E+000  
  854.50  0.0000E+000  
  855.00  0.0000E+000  
  855.50  0.0000E+000  
  856.00  0.0000E+000  
  856.50  0.0000E+000  
  857.00  0.0000E+000  
  857.50  0.0000E+000  
  858.00  0.0000E+000  
  858.50  0.0000E+000  
  859.00  0.0000E+000  
  859.50  5.3613E-006  
  860.00  4.7437E-004  
  860.50  5.9103E-004  
  861.00  0.0000E+000  
  861.50  0.0000E+000  
  862.00  0.0000E+000  
  862.50  3.1268E-005  
  863.00  0.0000E+000  
  863.50  0.0000E+000  
  864.00  0.0000E+000  
  864.50  0.0000E+000  
  865.00  0.0000E+000  
  865.50  0.0000E+000  
  866.00  0.0000E+000  
  866.50  0.0000E+000  
  867.00  0.0000E+000  
  867.50  0.0000E+000  
  868.00  0.0000E+000  
  868.50  0.0000E+000  
  869.00  1.1395E-003  
  869.50  1.8783E-003  
  870.00  2.5866E-005  
  870.50  0.0000E+000  
  871.00  0.0000E+000  
  871.50  0.0000E+000  
  872.00  0.0000E+000  
  872.50  0.0000E+000  
  873.00  0.0000E+000  
  873.50  0.0000E+000  
  874.00  2.6742E-003  
  874.50  1.1909E-003  
  875.00  0.0000E+000  
  875.50  0.0000E+000  
  876.00  0.0000E+000  
  876.50  0.0000E+000  
  877.00  0.0000E+000  
  877.50  0.0000E+000  
  878.00  0.0000E+000  
  878.50  0.0000E+000  
  879.00  0.0000E+000  
  879.50  0.0000E+000  
  880.00  0.0000E+000  
  880.50  0.0000E+000  
  881.00  0.0000E+000  
  881.50  0.0000E+000  
  882.00  0.0000E+000  
  882.50  0.0000E+000  
  883.00  0.0000E+000  
  883.50  0.0000E+000  
  884.00  0.0000E+000  
  884.50  0.0000E+000  
  885.00  0.0000E+000  
  885.50  0.0000E+000  
  886.00  0.0000E+000  
  886.50  0.0000E+000  
  887.00  0.0000E+000  
  887.50  0.0000E+000  
  888.00  0.0000E+000  
  888.50  0.0000E+000  
  889.00  0.0000E+000  
  889.50  0.0000E+000  
  890.00  0.0000E+000  
  890.50  0.0000E+000  
  891.00  0.0000E+000  
  891.50  0.0000E+000  
  892.00  0.0000E+000  
  892.50  0.0000E+000  
  893.00  0.0000E+000  
  893.50  0.0000E+000  
  894.00  0.0000E+000  
  894.50  0.0000E+000  
  895.00  0.0000E+000  
  895.50  0.0000E+000  
  896.00  0.0000E+000  
  896.50  0.0000E+000  
  897.00  0.0000E+000  
  897.50  0.0000E+000  
  898.00  0.0000E+000  
  898.50  3.7223E-004  
  899.00  2.2420E-003  
  899.50  2.7781E-005  
