
# From lspdd.org
# 
# Name: LED-Lot4-L2 QCPassed A19 -
# Indice spectral Valeur 
# MSI 0.06 
# SLI 0.19 
# IPI 0.83 
# Pourcentage de bleu 2.3 
# Caractéristique Valeur 
# CCT calculée (K) 1520 
# CCT du fabricant (K) 1500 
# Tension (V) 100 
# Puissance (W) 7.0 
# Efficacité lumineuse (Lum/W) ND 
#
# Image: '/app/system/img_1s/2794/medium_image1.JPG?1633620767'
# 

  273.00  0.0000E+000  
  273.50  0.0000E+000  
  274.00  0.0000E+000  
  274.50  0.0000E+000  
  275.00  0.0000E+000  
  275.50  0.0000E+000  
  276.00  0.0000E+000  
  276.50  0.0000E+000  
  277.00  0.0000E+000  
  277.50  0.0000E+000  
  278.00  0.0000E+000  
  278.50  0.0000E+000  
  279.00  0.0000E+000  
  279.50  0.0000E+000  
  280.00  0.0000E+000  
  280.50  0.0000E+000  
  281.00  0.0000E+000  
  281.50  0.0000E+000  
  282.00  0.0000E+000  
  282.50  0.0000E+000  
  283.00  0.0000E+000  
  283.50  0.0000E+000  
  284.00  0.0000E+000  
  284.50  0.0000E+000  
  285.00  0.0000E+000  
  285.50  0.0000E+000  
  286.00  0.0000E+000  
  286.50  0.0000E+000  
  287.00  0.0000E+000  
  287.50  0.0000E+000  
  288.00  0.0000E+000  
  288.50  0.0000E+000  
  289.00  0.0000E+000  
  289.50  0.0000E+000  
  290.00  0.0000E+000  
  290.50  0.0000E+000  
  291.00  0.0000E+000  
  291.50  0.0000E+000  
  292.00  0.0000E+000  
  292.50  0.0000E+000  
  293.00  0.0000E+000  
  293.50  0.0000E+000  
  294.00  0.0000E+000  
  294.50  0.0000E+000  
  295.00  0.0000E+000  
  295.50  0.0000E+000  
  296.00  0.0000E+000  
  296.50  0.0000E+000  
  297.00  0.0000E+000  
  297.50  0.0000E+000  
  298.00  0.0000E+000  
  298.50  0.0000E+000  
  299.00  0.0000E+000  
  299.50  0.0000E+000  
  300.00  0.0000E+000  
  300.50  0.0000E+000  
  301.00  0.0000E+000  
  301.50  0.0000E+000  
  302.00  0.0000E+000  
  302.50  0.0000E+000  
  303.00  0.0000E+000  
  303.50  0.0000E+000  
  304.00  0.0000E+000  
  304.50  0.0000E+000  
  305.00  0.0000E+000  
  305.50  0.0000E+000  
  306.00  0.0000E+000  
  306.50  0.0000E+000  
  307.00  0.0000E+000  
  307.50  0.0000E+000  
  308.00  0.0000E+000  
  308.50  0.0000E+000  
  309.00  0.0000E+000  
  309.50  0.0000E+000  
  310.00  0.0000E+000  
  310.50  0.0000E+000  
  311.00  0.0000E+000  
  311.50  0.0000E+000  
  312.00  0.0000E+000  
  312.50  0.0000E+000  
  313.00  0.0000E+000  
  313.50  0.0000E+000  
  314.00  0.0000E+000  
  314.50  0.0000E+000  
  315.00  0.0000E+000  
  315.50  0.0000E+000  
  316.00  0.0000E+000  
  316.50  0.0000E+000  
  317.00  0.0000E+000  
  317.50  0.0000E+000  
  318.00  0.0000E+000  
  318.50  0.0000E+000  
  319.00  0.0000E+000  
  319.50  0.0000E+000  
  320.00  0.0000E+000  
  320.50  0.0000E+000  
  321.00  0.0000E+000  
  321.50  0.0000E+000  
  322.00  0.0000E+000  
  322.50  0.0000E+000  
  323.00  0.0000E+000  
  323.50  0.0000E+000  
  324.00  0.0000E+000  
  324.50  0.0000E+000  
  325.00  0.0000E+000  
  325.50  0.0000E+000  
  326.00  0.0000E+000  
  326.50  0.0000E+000  
  327.00  0.0000E+000  
  327.50  0.0000E+000  
  328.00  0.0000E+000  
  328.50  0.0000E+000  
  329.00  0.0000E+000  
  329.50  0.0000E+000  
  330.00  0.0000E+000  
  330.50  0.0000E+000  
  331.00  0.0000E+000  
  331.50  0.0000E+000  
  332.00  0.0000E+000  
  332.50  0.0000E+000  
  333.00  0.0000E+000  
  333.50  0.0000E+000  
  334.00  0.0000E+000  
  334.50  0.0000E+000  
  335.00  0.0000E+000  
  335.50  0.0000E+000  
  336.00  0.0000E+000  
  336.50  0.0000E+000  
  337.00  0.0000E+000  
  337.50  0.0000E+000  
  338.00  0.0000E+000  
  338.50  0.0000E+000  
  339.00  0.0000E+000  
  339.50  0.0000E+000  
  340.00  0.0000E+000  
  340.50  0.0000E+000  
  341.00  0.0000E+000  
  341.50  0.0000E+000  
  342.00  0.0000E+000  
  342.50  0.0000E+000  
  343.00  0.0000E+000  
  343.50  0.0000E+000  
  344.00  0.0000E+000  
  344.50  0.0000E+000  
  345.00  0.0000E+000  
  345.50  0.0000E+000  
  346.00  0.0000E+000  
  346.50  0.0000E+000  
  347.00  0.0000E+000  
  347.50  0.0000E+000  
  348.00  0.0000E+000  
  348.50  0.0000E+000  
  349.00  0.0000E+000  
  349.50  0.0000E+000  
  350.00  0.0000E+000  
  350.50  0.0000E+000  
  351.00  0.0000E+000  
  351.50  0.0000E+000  
  352.00  0.0000E+000  
  352.50  0.0000E+000  
  353.00  0.0000E+000  
  353.50  1.0346E-004  
  354.00  1.8582E-004  
  354.50  4.1033E-005  
  355.00  0.0000E+000  
  355.50  0.0000E+000  
  356.00  0.0000E+000  
  356.50  0.0000E+000  
  357.00  0.0000E+000  
  357.50  0.0000E+000  
  358.00  0.0000E+000  
  358.50  0.0000E+000  
  359.00  0.0000E+000  
  359.50  0.0000E+000  
  360.00  0.0000E+000  
  360.50  0.0000E+000  
  361.00  0.0000E+000  
  361.50  0.0000E+000  
  362.00  0.0000E+000  
  362.50  0.0000E+000  
  363.00  0.0000E+000  
  363.50  0.0000E+000  
  364.00  0.0000E+000  
  364.50  0.0000E+000  
  365.00  0.0000E+000  
  365.50  0.0000E+000  
  366.00  0.0000E+000  
  366.50  0.0000E+000  
  367.00  0.0000E+000  
  367.50  0.0000E+000  
  368.00  0.0000E+000  
  368.50  0.0000E+000  
  369.00  0.0000E+000  
  369.50  0.0000E+000  
  370.00  0.0000E+000  
  370.50  0.0000E+000  
  371.00  0.0000E+000  
  371.50  0.0000E+000  
  372.00  0.0000E+000  
  372.50  0.0000E+000  
  373.00  0.0000E+000  
  373.50  0.0000E+000  
  374.00  0.0000E+000  
  374.50  0.0000E+000  
  375.00  0.0000E+000  
  375.50  0.0000E+000  
  376.00  0.0000E+000  
  376.50  0.0000E+000  
  377.00  0.0000E+000  
  377.50  0.0000E+000  
  378.00  0.0000E+000  
  378.50  0.0000E+000  
  379.00  0.0000E+000  
  379.50  0.0000E+000  
  380.00  0.0000E+000  
  380.50  0.0000E+000  
  381.00  0.0000E+000  
  381.50  0.0000E+000  
  382.00  0.0000E+000  
  382.50  0.0000E+000  
  383.00  0.0000E+000  
  383.50  0.0000E+000  
  384.00  0.0000E+000  
  384.50  0.0000E+000  
  385.00  0.0000E+000  
  385.50  0.0000E+000  
  386.00  0.0000E+000  
  386.50  0.0000E+000  
  387.00  0.0000E+000  
  387.50  0.0000E+000  
  388.00  0.0000E+000  
  388.50  0.0000E+000  
  389.00  0.0000E+000  
  389.50  0.0000E+000  
  390.00  6.3739E-005  
  390.50  2.9421E-005  
  391.00  0.0000E+000  
  391.50  0.0000E+000  
  392.00  0.0000E+000  
  392.50  0.0000E+000  
  393.00  0.0000E+000  
  393.50  0.0000E+000  
  394.00  0.0000E+000  
  394.50  0.0000E+000  
  395.00  0.0000E+000  
  395.50  0.0000E+000  
  396.00  0.0000E+000  
  396.50  0.0000E+000  
  397.00  0.0000E+000  
  397.50  0.0000E+000  
  398.00  0.0000E+000  
  398.50  0.0000E+000  
  399.00  0.0000E+000  
  399.50  0.0000E+000  
  400.00  0.0000E+000  
  400.50  0.0000E+000  
  401.00  0.0000E+000  
  401.50  0.0000E+000  
  402.00  0.0000E+000  
  402.50  0.0000E+000  
  403.00  0.0000E+000  
  403.50  0.0000E+000  
  404.00  0.0000E+000  
  404.50  0.0000E+000  
  405.00  0.0000E+000  
  405.50  0.0000E+000  
  406.00  0.0000E+000  
  406.50  0.0000E+000  
  407.00  0.0000E+000  
  407.50  0.0000E+000  
  408.00  1.7184E-004  
  408.50  2.6328E-004  
  409.00  1.8725E-004  
  409.50  4.7163E-006  
  410.00  0.0000E+000  
  410.50  0.0000E+000  
  411.00  0.0000E+000  
  411.50  0.0000E+000  
  412.00  0.0000E+000  
  412.50  0.0000E+000  
  413.00  0.0000E+000  
  413.50  0.0000E+000  
  414.00  1.0234E-004  
  414.50  1.8822E-004  
  415.00  1.7584E-004  
  415.50  1.6438E-004  
  416.00  0.0000E+000  
  416.50  0.0000E+000  
  417.00  0.0000E+000  
  417.50  0.0000E+000  
  418.00  0.0000E+000  
  418.50  6.7662E-005  
  419.00  2.3339E-004  
  419.50  2.1536E-004  
  420.00  6.7359E-005  
  420.50  0.0000E+000  
  421.00  0.0000E+000  
  421.50  0.0000E+000  
  422.00  6.0231E-004  
  422.50  1.0616E-003  
  423.00  1.2000E-003  
  423.50  7.4267E-004  
  424.00  3.4845E-004  
  424.50  1.3616E-004  
  425.00  3.8341E-004  
  425.50  4.2503E-004  
  426.00  5.4932E-004  
  426.50  5.6925E-004  
  427.00  3.9563E-004  
  427.50  3.7828E-004  
  428.00  3.7708E-004  
  428.50  4.7708E-004  
  429.00  6.4915E-004  
  429.50  7.4777E-004  
  430.00  5.8426E-004  
  430.50  4.8187E-004  
  431.00  3.2400E-004  
  431.50  2.6283E-004  
  432.00  2.1053E-004  
  432.50  2.0797E-004  
  433.00  2.2713E-004  
  433.50  2.9609E-004  
  434.00  3.5657E-004  
  434.50  3.9393E-004  
  435.00  4.5865E-004  
  435.50  6.0052E-004  
  436.00  7.0264E-004  
  436.50  8.1626E-004  
  437.00  9.4596E-004  
  437.50  7.5730E-004  
  438.00  7.1530E-004  
  438.50  4.7360E-004  
  439.00  2.6049E-004  
  439.50  2.0529E-004  
  440.00  2.8620E-004  
  440.50  5.0765E-004  
  441.00  8.1713E-004  
  441.50  8.6170E-004  
  442.00  7.4859E-004  
  442.50  7.5718E-004  
  443.00  8.1721E-004  
  443.50  7.6204E-004  
  444.00  8.0710E-004  
  444.50  7.1900E-004  
  445.00  7.7210E-004  
  445.50  9.8427E-004  
  446.00  1.0634E-003  
  446.50  1.1341E-003  
  447.00  9.5227E-004  
  447.50  7.4069E-004  
  448.00  5.7897E-004  
  448.50  5.8181E-004  
  449.00  6.6189E-004  
  449.50  5.7263E-004  
  450.00  5.6263E-004  
  450.50  3.0649E-004  
  451.00  1.6487E-004  
  451.50  1.9504E-004  
  452.00  3.2636E-004  
  452.50  2.3158E-004  
  453.00  9.8642E-005  
  453.50  0.0000E+000  
  454.00  0.0000E+000  
  454.50  0.0000E+000  
  455.00  0.0000E+000  
  455.50  0.0000E+000  
  456.00  0.0000E+000  
  456.50  0.0000E+000  
  457.00  0.0000E+000  
  457.50  0.0000E+000  
  458.00  0.0000E+000  
  458.50  0.0000E+000  
  459.00  0.0000E+000  
  459.50  0.0000E+000  
  460.00  1.1627E-005  
  460.50  3.9101E-005  
  461.00  0.0000E+000  
  461.50  0.0000E+000  
  462.00  0.0000E+000  
  462.50  0.0000E+000  
  463.00  1.9199E-004  
  463.50  3.0614E-004  
  464.00  4.3102E-004  
  464.50  3.9093E-004  
  465.00  4.1489E-004  
  465.50  3.8148E-004  
  466.00  1.3713E-004  
  466.50  0.0000E+000  
  467.00  0.0000E+000  
  467.50  0.0000E+000  
  468.00  0.0000E+000  
  468.50  0.0000E+000  
  469.00  0.0000E+000  
  469.50  0.0000E+000  
  470.00  3.7394E-005  
  470.50  8.1269E-005  
  471.00  5.8262E-005  
  471.50  2.4342E-004  
  472.00  3.7568E-004  
  472.50  3.5817E-004  
  473.00  1.8043E-004  
  473.50  1.1822E-004  
  474.00  1.1968E-004  
  474.50  1.4639E-004  
  475.00  1.5037E-004  
  475.50  0.0000E+000  
  476.00  0.0000E+000  
  476.50  0.0000E+000  
  477.00  0.0000E+000  
  477.50  0.0000E+000  
  478.00  0.0000E+000  
  478.50  0.0000E+000  
  479.00  0.0000E+000  
  479.50  4.8228E-005  
  480.00  1.0008E-004  
  480.50  1.1373E-005  
  481.00  0.0000E+000  
  481.50  5.2507E-005  
  482.00  1.2321E-004  
  482.50  1.5620E-004  
  483.00  1.8391E-004  
  483.50  2.1146E-004  
  484.00  2.3461E-004  
  484.50  2.0498E-004  
  485.00  1.5307E-004  
  485.50  1.9805E-004  
  486.00  3.4457E-004  
  486.50  3.6701E-004  
  487.00  3.5491E-004  
  487.50  2.6682E-004  
  488.00  2.1465E-004  
  488.50  2.3973E-004  
  489.00  2.3752E-004  
  489.50  2.7402E-004  
  490.00  2.5419E-004  
  490.50  2.6751E-004  
  491.00  3.0543E-004  
  491.50  3.3665E-004  
  492.00  3.5871E-004  
  492.50  2.8133E-004  
  493.00  3.8953E-004  
  493.50  5.0299E-004  
  494.00  6.5116E-004  
  494.50  5.9046E-004  
  495.00  5.1518E-004  
  495.50  5.0096E-004  
  496.00  6.2980E-004  
  496.50  8.7113E-004  
  497.00  1.0371E-003  
  497.50  1.1825E-003  
  498.00  1.3673E-003  
  498.50  1.3675E-003  
  499.00  1.3181E-003  
  499.50  1.1521E-003  
  500.00  1.1324E-003  
  500.50  1.4105E-003  
  501.00  1.6386E-003  
  501.50  1.7809E-003  
  502.00  1.8135E-003  
  502.50  1.8564E-003  
  503.00  1.8739E-003  
  503.50  1.8414E-003  
  504.00  1.8221E-003  
  504.50  1.9197E-003  
  505.00  2.1480E-003  
  505.50  2.3452E-003  
  506.00  2.5090E-003  
  506.50  2.5681E-003  
  507.00  2.7397E-003  
  507.50  2.8828E-003  
  508.00  3.1665E-003  
  508.50  3.3914E-003  
  509.00  3.6131E-003  
  509.50  3.6751E-003  
  510.00  3.6730E-003  
  510.50  3.6938E-003  
  511.00  3.9004E-003  
  511.50  4.2048E-003  
  512.00  4.3744E-003  
  512.50  4.4768E-003  
  513.00  4.4520E-003  
  513.50  4.4882E-003  
  514.00  4.6192E-003  
  514.50  4.7174E-003  
  515.00  4.9000E-003  
  515.50  5.2367E-003  
  516.00  5.5137E-003  
  516.50  5.6688E-003  
  517.00  5.6205E-003  
  517.50  5.5188E-003  
  518.00  5.5772E-003  
  518.50  5.7712E-003  
  519.00  5.9878E-003  
  519.50  6.1495E-003  
  520.00  6.2311E-003  
  520.50  6.3475E-003  
  521.00  6.5522E-003  
  521.50  6.8050E-003  
  522.00  6.8732E-003  
  522.50  6.8798E-003  
  523.00  6.8530E-003  
  523.50  7.1095E-003  
  524.00  7.2601E-003  
  524.50  7.3784E-003  
  525.00  7.3711E-003  
  525.50  7.5163E-003  
  526.00  7.7032E-003  
  526.50  7.9131E-003  
  527.00  8.0960E-003  
  527.50  8.3199E-003  
  528.00  8.5656E-003  
  528.50  8.7916E-003  
  529.00  8.8089E-003  
  529.50  8.8191E-003  
  530.00  8.7992E-003  
  530.50  8.8086E-003  
  531.00  8.9863E-003  
  531.50  9.1325E-003  
  532.00  9.2565E-003  
  532.50  9.4111E-003  
  533.00  9.5090E-003  
  533.50  9.6793E-003  
  534.00  9.9858E-003  
  534.50  1.0169E-002  
  535.00  1.0221E-002  
  535.50  1.0122E-002  
  536.00  9.9522E-003  
  536.50  9.9495E-003  
  537.00  1.0071E-002  
  537.50  1.0242E-002  
  538.00  1.0419E-002  
  538.50  1.0607E-002  
  539.00  1.0755E-002  
  539.50  1.0878E-002  
  540.00  1.1031E-002  
  540.50  1.1220E-002  
  541.00  1.1518E-002  
  541.50  1.1752E-002  
  542.00  1.1983E-002  
  542.50  1.2055E-002  
  543.00  1.2070E-002  
  543.50  1.2100E-002  
  544.00  1.2211E-002  
  544.50  1.2387E-002  
  545.00  1.2550E-002  
  545.50  1.2749E-002  
  546.00  1.2913E-002  
  546.50  1.3129E-002  
  547.00  1.3395E-002  
  547.50  1.3634E-002  
  548.00  1.3902E-002  
  548.50  1.4187E-002  
  549.00  1.4338E-002  
  549.50  1.4567E-002  
  550.00  1.4735E-002  
  550.50  1.4812E-002  
  551.00  1.4973E-002  
  551.50  1.5090E-002  
  552.00  1.5326E-002  
  552.50  1.5581E-002  
  553.00  1.5741E-002  
  553.50  1.5920E-002  
  554.00  1.6154E-002  
  554.50  1.6237E-002  
  555.00  1.6481E-002  
  555.50  1.6617E-002  
  556.00  1.6815E-002  
  556.50  1.7098E-002  
  557.00  1.7435E-002  
  557.50  1.7890E-002  
  558.00  1.8213E-002  
  558.50  1.8473E-002  
  559.00  1.8614E-002  
  559.50  1.8883E-002  
  560.00  1.9232E-002  
  560.50  1.9563E-002  
  561.00  1.9889E-002  
  561.50  2.0149E-002  
  562.00  2.0470E-002  
  562.50  2.1000E-002  
  563.00  2.1466E-002  
  563.50  2.1976E-002  
  564.00  2.2227E-002  
  564.50  2.2515E-002  
  565.00  2.2971E-002  
  565.50  2.3603E-002  
  566.00  2.4187E-002  
  566.50  2.4412E-002  
  567.00  2.4622E-002  
  567.50  2.4871E-002  
  568.00  2.5459E-002  
  568.50  2.6047E-002  
  569.00  2.6563E-002  
  569.50  2.6954E-002  
  570.00  2.7261E-002  
  570.50  2.7844E-002  
  571.00  2.8425E-002  
  571.50  2.8881E-002  
  572.00  2.9260E-002  
  572.50  2.9680E-002  
  573.00  3.0434E-002  
  573.50  3.1111E-002  
  574.00  3.1730E-002  
  574.50  3.2234E-002  
  575.00  3.2671E-002  
  575.50  3.3088E-002  
  576.00  3.3576E-002  
  576.50  3.4500E-002  
  577.00  3.5533E-002  
  577.50  3.6481E-002  
  578.00  3.7031E-002  
  578.50  3.7414E-002  
  579.00  3.7729E-002  
  579.50  3.8081E-002  
  580.00  3.8746E-002  
  580.50  3.9603E-002  
  581.00  4.0718E-002  
  581.50  4.1593E-002  
  582.00  4.2175E-002  
  582.50  4.2788E-002  
  583.00  4.3492E-002  
  583.50  4.4342E-002  
  584.00  4.5153E-002  
  584.50  4.5851E-002  
  585.00  4.6484E-002  
  585.50  4.7002E-002  
  586.00  4.7791E-002  
  586.50  4.8737E-002  
  587.00  4.9695E-002  
  587.50  5.0445E-002  
  588.00  5.1130E-002  
  588.50  5.1788E-002  
  589.00  5.2346E-002  
  589.50  5.2948E-002  
  590.00  5.3540E-002  
  590.50  5.4498E-002  
  591.00  5.5544E-002  
  591.50  5.6539E-002  
  592.00  5.7370E-002  
  592.50  5.8029E-002  
  593.00  5.8928E-002  
  593.50  5.9935E-002  
  594.00  6.0888E-002  
  594.50  6.1800E-002  
  595.00  6.2595E-002  
  595.50  6.3000E-002  
  596.00  6.3271E-002  
  596.50  6.3495E-002  
  597.00  6.3928E-002  
  597.50  6.4762E-002  
  598.00  6.5531E-002  
  598.50  6.6328E-002  
  599.00  6.7142E-002  
  599.50  6.7902E-002  
  600.00  6.8645E-002  
  600.50  6.9049E-002  
  601.00  6.9391E-002  
  601.50  7.0001E-002  
  602.00  7.0595E-002  
  602.50  7.1255E-002  
  603.00  7.1612E-002  
  603.50  7.1974E-002  
  604.00  7.2303E-002  
  604.50  7.2849E-002  
  605.00  7.3719E-002  
  605.50  7.4187E-002  
  606.00  7.4317E-002  
  606.50  7.4401E-002  
  607.00  7.4950E-002  
  607.50  7.5694E-002  
  608.00  7.6210E-002  
  608.50  7.6353E-002  
  609.00  7.6610E-002  
  609.50  7.6958E-002  
  610.00  7.7465E-002  
  610.50  7.7592E-002  
  611.00  7.7775E-002  
  611.50  7.8052E-002  
  612.00  7.8617E-002  
  612.50  7.8917E-002  
  613.00  7.9030E-002  
  613.50  7.9298E-002  
  614.00  7.9694E-002  
  614.50  7.9650E-002  
  615.00  7.9455E-002  
  615.50  7.9316E-002  
  616.00  7.9559E-002  
  616.50  7.9657E-002  
  617.00  7.9454E-002  
  617.50  7.9166E-002  
  618.00  7.8913E-002  
  618.50  7.8662E-002  
  619.00  7.8876E-002  
  619.50  7.8993E-002  
  620.00  7.9182E-002  
  620.50  7.8747E-002  
  621.00  7.8623E-002  
  621.50  7.8485E-002  
  622.00  7.8820E-002  
  622.50  7.8866E-002  
  623.00  7.8799E-002  
  623.50  7.8441E-002  
  624.00  7.8046E-002  
  624.50  7.7986E-002  
  625.00  7.7918E-002  
  625.50  7.7823E-002  
  626.00  7.7515E-002  
  626.50  7.7263E-002  
  627.00  7.6733E-002  
  627.50  7.6434E-002  
  628.00  7.6139E-002  
  628.50  7.6458E-002  
  629.00  7.6368E-002  
  629.50  7.5990E-002  
  630.00  7.5705E-002  
  630.50  7.5383E-002  
  631.00  7.5305E-002  
  631.50  7.5046E-002  
  632.00  7.4734E-002  
  632.50  7.4263E-002  
  633.00  7.3527E-002  
  633.50  7.3279E-002  
  634.00  7.3275E-002  
  634.50  7.3124E-002  
  635.00  7.2600E-002  
  635.50  7.1990E-002  
  636.00  7.1518E-002  
  636.50  7.0960E-002  
  637.00  7.0328E-002  
  637.50  6.9735E-002  
  638.00  6.9077E-002  
  638.50  6.8874E-002  
  639.00  6.8734E-002  
  639.50  6.8805E-002  
  640.00  6.8101E-002  
  640.50  6.7477E-002  
  641.00  6.6798E-002  
  641.50  6.6333E-002  
  642.00  6.5495E-002  
  642.50  6.5089E-002  
  643.00  6.4753E-002  
  643.50  6.4597E-002  
  644.00  6.4049E-002  
  644.50  6.3543E-002  
  645.00  6.3156E-002  
  645.50  6.2671E-002  
  646.00  6.2348E-002  
  646.50  6.1865E-002  
  647.00  6.1386E-002  
  647.50  6.0640E-002  
  648.00  5.9929E-002  
  648.50  5.9443E-002  
  649.00  5.8992E-002  
  649.50  5.8698E-002  
  650.00  5.8476E-002  
  650.50  5.8494E-002  
  651.00  5.8163E-002  
  651.50  5.7324E-002  
  652.00  5.6282E-002  
  652.50  5.5230E-002  
  653.00  5.4812E-002  
  653.50  5.4245E-002  
  654.00  5.3895E-002  
  654.50  5.3105E-002  
  655.00  5.2447E-002  
  655.50  5.2037E-002  
  656.00  5.1418E-002  
  656.50  5.0967E-002  
  657.00  5.0160E-002  
  657.50  4.9750E-002  
  658.00  4.9184E-002  
  658.50  4.8732E-002  
  659.00  4.8523E-002  
  659.50  4.8358E-002  
  660.00  4.7977E-002  
  660.50  4.7249E-002  
  661.00  4.6628E-002  
  661.50  4.6352E-002  
  662.00  4.6051E-002  
  662.50  4.5696E-002  
  663.00  4.5229E-002  
  663.50  4.4546E-002  
  664.00  4.3676E-002  
  664.50  4.2537E-002  
  665.00  4.1767E-002  
  665.50  4.1255E-002  
  666.00  4.1096E-002  
  666.50  4.0815E-002  
  667.00  4.0397E-002  
  667.50  3.9799E-002  
  668.00  3.9412E-002  
  668.50  3.8799E-002  
  669.00  3.8310E-002  
  669.50  3.7491E-002  
  670.00  3.7138E-002  
  670.50  3.6814E-002  
  671.00  3.6444E-002  
  671.50  3.5977E-002  
  672.00  3.5453E-002  
  672.50  3.5298E-002  
  673.00  3.4994E-002  
  673.50  3.4680E-002  
  674.00  3.3635E-002  
  674.50  3.2811E-002  
  675.00  3.2170E-002  
  675.50  3.1898E-002  
  676.00  3.1346E-002  
  676.50  3.0583E-002  
  677.00  3.0271E-002  
  677.50  2.9955E-002  
  678.00  2.9816E-002  
  678.50  2.9450E-002  
  679.00  2.9154E-002  
  679.50  2.8670E-002  
  680.00  2.8163E-002  
  680.50  2.7654E-002  
  681.00  2.7144E-002  
  681.50  2.6681E-002  
  682.00  2.6233E-002  
  682.50  2.6175E-002  
  683.00  2.6303E-002  
  683.50  2.6313E-002  
  684.00  2.6278E-002  
  684.50  2.5562E-002  
  685.00  2.4541E-002  
  685.50  2.3712E-002  
  686.00  2.3500E-002  
  686.50  2.3665E-002  
  687.00  2.3428E-002  
  687.50  2.3156E-002  
  688.00  2.2440E-002  
  688.50  2.1872E-002  
  689.00  2.1281E-002  
  689.50  2.1343E-002  
  690.00  2.1301E-002  
  690.50  2.0992E-002  
  691.00  2.0582E-002  
  691.50  2.0276E-002  
  692.00  2.0142E-002  
  692.50  2.0000E-002  
  693.00  1.9627E-002  
  693.50  1.9080E-002  
  694.00  1.8475E-002  
  694.50  1.8272E-002  
  695.00  1.8201E-002  
  695.50  1.8077E-002  
  696.00  1.7646E-002  
  696.50  1.7244E-002  
  697.00  1.6808E-002  
  697.50  1.6708E-002  
  698.00  1.6547E-002  
  698.50  1.6301E-002  
  699.00  1.5936E-002  
  699.50  1.5976E-002  
  700.00  1.5578E-002  
  700.50  1.5207E-002  
  701.00  1.4583E-002  
  701.50  1.4530E-002  
  702.00  1.4032E-002  
  702.50  1.3772E-002  
  703.00  1.3370E-002  
  703.50  1.3287E-002  
  704.00  1.3019E-002  
  704.50  1.2649E-002  
  705.00  1.2570E-002  
  705.50  1.2700E-002  
  706.00  1.2857E-002  
  706.50  1.2663E-002  
  707.00  1.2315E-002  
  707.50  1.2153E-002  
  708.00  1.2089E-002  
  708.50  1.1963E-002  
  709.00  1.1510E-002  
  709.50  1.1318E-002  
  710.00  1.0966E-002  
  710.50  1.0548E-002  
  711.00  1.0165E-002  
  711.50  1.0343E-002  
  712.00  1.0624E-002  
  712.50  1.0682E-002  
  713.00  1.0643E-002  
  713.50  1.0639E-002  
  714.00  1.0351E-002  
  714.50  1.0011E-002  
  715.00  9.3792E-003  
  715.50  8.9602E-003  
  716.00  8.7871E-003  
  716.50  9.0636E-003  
  717.00  9.1713E-003  
  717.50  8.9167E-003  
  718.00  8.4648E-003  
  718.50  8.2661E-003  
  719.00  8.2357E-003  
  719.50  8.3130E-003  
  720.00  8.4823E-003  
  720.50  8.3108E-003  
  721.00  7.8103E-003  
  721.50  7.3287E-003  
  722.00  7.4955E-003  
  722.50  7.6689E-003  
  723.00  7.4641E-003  
  723.50  7.1927E-003  
  724.00  7.1013E-003  
  724.50  7.1886E-003  
  725.00  6.6492E-003  
  725.50  6.2516E-003  
  726.00  5.9775E-003  
  726.50  6.0207E-003  
  727.00  6.0847E-003  
  727.50  6.1333E-003  
  728.00  6.3777E-003  
  728.50  6.2154E-003  
  729.00  6.0184E-003  
  729.50  5.6018E-003  
  730.00  5.1529E-003  
  730.50  4.9299E-003  
  731.00  4.7921E-003  
  731.50  4.9901E-003  
  732.00  5.6376E-003  
  732.50  6.1643E-003  
  733.00  6.4388E-003  
  733.50  6.0433E-003  
  734.00  5.6195E-003  
  734.50  5.0877E-003  
  735.00  4.6592E-003  
  735.50  4.3907E-003  
  736.00  4.4604E-003  
  736.50  4.4590E-003  
  737.00  3.9619E-003  
  737.50  3.8215E-003  
  738.00  3.6832E-003  
  738.50  3.9352E-003  
  739.00  3.9924E-003  
  739.50  4.3472E-003  
  740.00  4.2679E-003  
  740.50  3.1891E-003  
  741.00  2.4466E-003  
  741.50  2.5011E-003  
  742.00  2.7171E-003  
  742.50  2.3839E-003  
  743.00  2.0643E-003  
  743.50  2.4996E-003  
  744.00  2.9102E-003  
  744.50  3.1645E-003  
  745.00  3.3101E-003  
  745.50  3.4610E-003  
  746.00  3.3496E-003  
  746.50  3.0476E-003  
  747.00  3.0056E-003  
  747.50  3.0453E-003  
  748.00  2.3550E-003  
  748.50  2.0763E-003  
  749.00  1.9489E-003  
  749.50  2.2826E-003  
  750.00  2.3180E-003  
  750.50  2.9747E-003  
  751.00  3.8303E-003  
  751.50  3.8149E-003  
  752.00  3.4768E-003  
  752.50  3.1104E-003  
  753.00  2.8377E-003  
  753.50  2.3967E-003  
  754.00  2.1250E-003  
  754.50  2.6695E-003  
  755.00  2.8632E-003  
  755.50  2.7471E-003  
  756.00  2.3267E-003  
  756.50  2.4899E-003  
  757.00  2.5153E-003  
  757.50  2.7522E-003  
  758.00  2.8118E-003  
  758.50  2.5050E-003  
  759.00  2.4362E-003  
  759.50  1.8482E-003  
  760.00  1.0298E-003  
  760.50  4.8794E-004  
  761.00  8.4591E-004  
  761.50  1.2860E-003  
  762.00  1.8359E-003  
  762.50  2.0136E-003  
  763.00  2.1192E-003  
  763.50  1.7747E-003  
  764.00  1.3473E-003  
  764.50  7.6356E-004  
  765.00  2.1387E-004  
  765.50  0.0000E+000  
  766.00  0.0000E+000  
  766.50  3.7268E-004  
  767.00  2.2526E-004  
  767.50  9.2793E-006  
  768.00  1.1959E-004  
  768.50  2.8686E-004  
  769.00  5.1477E-004  
  769.50  9.0925E-004  
  770.00  1.7623E-003  
  770.50  1.8329E-003  
  771.00  9.1920E-004  
  771.50  1.1471E-004  
  772.00  9.7124E-005  
  772.50  3.6280E-004  
  773.00  6.1980E-004  
  773.50  6.0130E-004  
  774.00  3.9189E-004  
  774.50  7.1144E-004  
  775.00  4.3519E-004  
  775.50  4.2623E-004  
  776.00  7.7157E-004  
  776.50  9.5508E-004  
  777.00  8.1299E-004  
  777.50  6.3147E-004  
  778.00  7.5657E-004  
  778.50  1.2971E-003  
  779.00  1.5582E-003  
  779.50  1.1117E-003  
  780.00  1.0220E-003  
  780.50  1.7494E-003  
  781.00  2.1435E-003  
  781.50  1.0886E-003  
  782.00  0.0000E+000  
  782.50  0.0000E+000  
  783.00  0.0000E+000  
  783.50  4.6666E-006  
  784.00  4.7272E-004  
  784.50  6.7914E-004  
  785.00  9.8689E-004  
  785.50  2.5310E-004  
  786.00  0.0000E+000  
  786.50  0.0000E+000  
  787.00  5.3964E-006  
  787.50  5.9362E-004  
  788.00  6.4082E-004  
  788.50  2.1705E-004  
  789.00  1.0834E-004  
  789.50  1.9231E-004  
  790.00  2.0783E-004  
  790.50  0.0000E+000  
  791.00  0.0000E+000  
  791.50  0.0000E+000  
  792.00  0.0000E+000  
  792.50  0.0000E+000  
  793.00  0.0000E+000  
  793.50  1.6107E-004  
  794.00  7.4078E-004  
  794.50  1.1585E-003  
  795.00  6.4914E-004  
  795.50  4.3797E-004  
  796.00  2.0504E-004  
  796.50  0.0000E+000  
  797.00  0.0000E+000  
  797.50  0.0000E+000  
  798.00  0.0000E+000  
  798.50  0.0000E+000  
  799.00  0.0000E+000  
  799.50  0.0000E+000  
  800.00  0.0000E+000  
  800.50  0.0000E+000  
  801.00  0.0000E+000  
  801.50  1.6817E-004  
  802.00  6.9012E-004  
  802.50  1.7761E-004  
  803.00  0.0000E+000  
  803.50  0.0000E+000  
  804.00  0.0000E+000  
  804.50  0.0000E+000  
  805.00  0.0000E+000  
  805.50  0.0000E+000  
  806.00  0.0000E+000  
  806.50  0.0000E+000  
  807.00  0.0000E+000  
  807.50  0.0000E+000  
  808.00  0.0000E+000  
  808.50  0.0000E+000  
  809.00  0.0000E+000  
  809.50  7.9921E-004  
  810.00  4.3555E-004  
  810.50  8.5887E-004  
  811.00  1.4755E-004  
  811.50  0.0000E+000  
  812.00  0.0000E+000  
  812.50  0.0000E+000  
  813.00  0.0000E+000  
  813.50  0.0000E+000  
  814.00  0.0000E+000  
  814.50  0.0000E+000  
  815.00  0.0000E+000  
  815.50  0.0000E+000  
  816.00  0.0000E+000  
  816.50  9.3878E-005  
  817.00  5.7684E-007  
  817.50  3.8271E-004  
  818.00  1.4623E-004  
  818.50  5.2891E-006  
  819.00  0.0000E+000  
  819.50  0.0000E+000  
  820.00  0.0000E+000  
  820.50  0.0000E+000  
  821.00  0.0000E+000  
  821.50  0.0000E+000  
  822.00  0.0000E+000  
  822.50  0.0000E+000  
  823.00  0.0000E+000  
  823.50  0.0000E+000  
  824.00  0.0000E+000  
  824.50  0.0000E+000  
  825.00  0.0000E+000  
  825.50  0.0000E+000  
  826.00  2.9384E-004  
  826.50  0.0000E+000  
  827.00  0.0000E+000  
  827.50  0.0000E+000  
  828.00  0.0000E+000  
  828.50  0.0000E+000  
  829.00  0.0000E+000  
  829.50  0.0000E+000  
  830.00  0.0000E+000  
  830.50  0.0000E+000  
  831.00  0.0000E+000  
  831.50  0.0000E+000  
  832.00  2.0926E-004  
  832.50  4.6389E-004  
  833.00  0.0000E+000  
  833.50  0.0000E+000  
  834.00  0.0000E+000  
  834.50  0.0000E+000  
  835.00  0.0000E+000  
  835.50  0.0000E+000  
  836.00  0.0000E+000  
  836.50  0.0000E+000  
  837.00  0.0000E+000  
  837.50  0.0000E+000  
  838.00  0.0000E+000  
  838.50  0.0000E+000  
  839.00  0.0000E+000  
  839.50  0.0000E+000  
  840.00  0.0000E+000  
  840.50  0.0000E+000  
  841.00  0.0000E+000  
  841.50  0.0000E+000  
  842.00  0.0000E+000  
  842.50  0.0000E+000  
  843.00  0.0000E+000  
  843.50  0.0000E+000  
  844.00  0.0000E+000  
  844.50  0.0000E+000  
  845.00  0.0000E+000  
  845.50  0.0000E+000  
  846.00  0.0000E+000  
  846.50  0.0000E+000  
  847.00  0.0000E+000  
  847.50  0.0000E+000  
  848.00  0.0000E+000  
  848.50  0.0000E+000  
  849.00  0.0000E+000  
  849.50  0.0000E+000  
  850.00  1.5167E-005  
  850.50  0.0000E+000  
  851.00  0.0000E+000  
  851.50  0.0000E+000  
  852.00  0.0000E+000  
  852.50  4.8748E-005  
  853.00  2.0931E-004  
  853.50  6.6864E-004  
  854.00  6.1595E-004  
  854.50  0.0000E+000  
  855.00  0.0000E+000  
  855.50  1.7202E-005  
  856.00  0.0000E+000  
  856.50  0.0000E+000  
  857.00  0.0000E+000  
  857.50  0.0000E+000  
  858.00  0.0000E+000  
  858.50  0.0000E+000  
  859.00  0.0000E+000  
  859.50  0.0000E+000  
  860.00  0.0000E+000  
  860.50  5.4971E-004  
  861.00  9.6193E-004  
  861.50  2.4965E-004  
  862.00  0.0000E+000  
  862.50  0.0000E+000  
  863.00  0.0000E+000  
  863.50  0.0000E+000  
  864.00  0.0000E+000  
  864.50  0.0000E+000  
  865.00  0.0000E+000  
  865.50  0.0000E+000  
  866.00  0.0000E+000  
  866.50  0.0000E+000  
  867.00  0.0000E+000  
  867.50  0.0000E+000  
  868.00  0.0000E+000  
  868.50  0.0000E+000  
  869.00  0.0000E+000  
  869.50  0.0000E+000  
  870.00  0.0000E+000  
  870.50  0.0000E+000  
  871.00  0.0000E+000  
  871.50  0.0000E+000  
  872.00  0.0000E+000  
  872.50  0.0000E+000  
  873.00  2.2692E-004  
  873.50  4.0494E-003  
  874.00  4.6234E-003  
  874.50  5.8136E-004  
  875.00  0.0000E+000  
  875.50  0.0000E+000  
  876.00  0.0000E+000  
  876.50  0.0000E+000  
  877.00  0.0000E+000  
  877.50  0.0000E+000  
  878.00  0.0000E+000  
  878.50  0.0000E+000  
  879.00  0.0000E+000  
  879.50  0.0000E+000  
  880.00  0.0000E+000  
  880.50  0.0000E+000  
  881.00  0.0000E+000  
  881.50  0.0000E+000  
  882.00  0.0000E+000  
  882.50  0.0000E+000  
  883.00  0.0000E+000  
  883.50  0.0000E+000  
  884.00  0.0000E+000  
  884.50  0.0000E+000  
  885.00  0.0000E+000  
  885.50  0.0000E+000  
  886.00  0.0000E+000  
  886.50  0.0000E+000  
  887.00  0.0000E+000  
  887.50  0.0000E+000  
  888.00  0.0000E+000  
  888.50  0.0000E+000  
  889.00  0.0000E+000  
  889.50  0.0000E+000  
  890.00  0.0000E+000  
  890.50  0.0000E+000  
  891.00  0.0000E+000  
  891.50  0.0000E+000  
  892.00  1.5933E-003  
  892.50  1.0243E-003  
  893.00  0.0000E+000  
  893.50  0.0000E+000  
  894.00  0.0000E+000  
  894.50  0.0000E+000  
  895.00  0.0000E+000  
  895.50  0.0000E+000  
  896.00  0.0000E+000  
  896.50  0.0000E+000  
  897.00  0.0000E+000  
  897.50  0.0000E+000  
  898.00  0.0000E+000  
  898.50  0.0000E+000  
  899.00  1.8737E-003  
  899.50  2.0520E-005  
