
# From lspdd.org
# 
# Name: LED-Lot4-L4 QCPassed A19 -
# Indice spectral Valeur 
# MSI 0.05 
# SLI 0.19 
# IPI 0.83 
# Pourcentage de bleu 2.2 
# Caractéristique Valeur 
# CCT calculée (K) 1510 
# CCT du fabricant (K) 1500 
# Tension (V) 100 
# Puissance (W) 7.0 
# Efficacité lumineuse (Lum/W) ND 
#
# Image: '/app/system/img_1s/2797/medium_image1.JPG?1633620769'
# 

  273.00  0.0000E+000  
  273.50  0.0000E+000  
  274.00  0.0000E+000  
  274.50  0.0000E+000  
  275.00  0.0000E+000  
  275.50  0.0000E+000  
  276.00  0.0000E+000  
  276.50  0.0000E+000  
  277.00  0.0000E+000  
  277.50  0.0000E+000  
  278.00  0.0000E+000  
  278.50  0.0000E+000  
  279.00  0.0000E+000  
  279.50  0.0000E+000  
  280.00  0.0000E+000  
  280.50  0.0000E+000  
  281.00  0.0000E+000  
  281.50  0.0000E+000  
  282.00  0.0000E+000  
  282.50  0.0000E+000  
  283.00  0.0000E+000  
  283.50  0.0000E+000  
  284.00  0.0000E+000  
  284.50  0.0000E+000  
  285.00  0.0000E+000  
  285.50  0.0000E+000  
  286.00  0.0000E+000  
  286.50  0.0000E+000  
  287.00  0.0000E+000  
  287.50  0.0000E+000  
  288.00  0.0000E+000  
  288.50  0.0000E+000  
  289.00  0.0000E+000  
  289.50  0.0000E+000  
  290.00  0.0000E+000  
  290.50  0.0000E+000  
  291.00  0.0000E+000  
  291.50  0.0000E+000  
  292.00  0.0000E+000  
  292.50  0.0000E+000  
  293.00  0.0000E+000  
  293.50  0.0000E+000  
  294.00  0.0000E+000  
  294.50  0.0000E+000  
  295.00  0.0000E+000  
  295.50  0.0000E+000  
  296.00  0.0000E+000  
  296.50  0.0000E+000  
  297.00  0.0000E+000  
  297.50  0.0000E+000  
  298.00  0.0000E+000  
  298.50  0.0000E+000  
  299.00  0.0000E+000  
  299.50  0.0000E+000  
  300.00  0.0000E+000  
  300.50  0.0000E+000  
  301.00  0.0000E+000  
  301.50  6.0113E-006  
  302.00  9.3280E-006  
  302.50  0.0000E+000  
  303.00  0.0000E+000  
  303.50  0.0000E+000  
  304.00  0.0000E+000  
  304.50  0.0000E+000  
  305.00  0.0000E+000  
  305.50  0.0000E+000  
  306.00  0.0000E+000  
  306.50  0.0000E+000  
  307.00  0.0000E+000  
  307.50  0.0000E+000  
  308.00  0.0000E+000  
  308.50  0.0000E+000  
  309.00  0.0000E+000  
  309.50  2.2887E-005  
  310.00  1.6905E-004  
  310.50  1.7348E-004  
  311.00  1.2240E-004  
  311.50  0.0000E+000  
  312.00  0.0000E+000  
  312.50  0.0000E+000  
  313.00  0.0000E+000  
  313.50  0.0000E+000  
  314.00  0.0000E+000  
  314.50  0.0000E+000  
  315.00  0.0000E+000  
  315.50  0.0000E+000  
  316.00  0.0000E+000  
  316.50  0.0000E+000  
  317.00  0.0000E+000  
  317.50  0.0000E+000  
  318.00  0.0000E+000  
  318.50  0.0000E+000  
  319.00  0.0000E+000  
  319.50  0.0000E+000  
  320.00  0.0000E+000  
  320.50  0.0000E+000  
  321.00  0.0000E+000  
  321.50  0.0000E+000  
  322.00  0.0000E+000  
  322.50  0.0000E+000  
  323.00  0.0000E+000  
  323.50  0.0000E+000  
  324.00  0.0000E+000  
  324.50  0.0000E+000  
  325.00  0.0000E+000  
  325.50  0.0000E+000  
  326.00  0.0000E+000  
  326.50  0.0000E+000  
  327.00  0.0000E+000  
  327.50  0.0000E+000  
  328.00  0.0000E+000  
  328.50  0.0000E+000  
  329.00  0.0000E+000  
  329.50  0.0000E+000  
  330.00  0.0000E+000  
  330.50  0.0000E+000  
  331.00  0.0000E+000  
  331.50  0.0000E+000  
  332.00  0.0000E+000  
  332.50  0.0000E+000  
  333.00  0.0000E+000  
  333.50  0.0000E+000  
  334.00  0.0000E+000  
  334.50  0.0000E+000  
  335.00  0.0000E+000  
  335.50  0.0000E+000  
  336.00  0.0000E+000  
  336.50  0.0000E+000  
  337.00  0.0000E+000  
  337.50  0.0000E+000  
  338.00  0.0000E+000  
  338.50  0.0000E+000  
  339.00  0.0000E+000  
  339.50  0.0000E+000  
  340.00  0.0000E+000  
  340.50  0.0000E+000  
  341.00  0.0000E+000  
  341.50  0.0000E+000  
  342.00  0.0000E+000  
  342.50  0.0000E+000  
  343.00  0.0000E+000  
  343.50  0.0000E+000  
  344.00  0.0000E+000  
  344.50  0.0000E+000  
  345.00  0.0000E+000  
  345.50  0.0000E+000  
  346.00  0.0000E+000  
  346.50  0.0000E+000  
  347.00  0.0000E+000  
  347.50  0.0000E+000  
  348.00  0.0000E+000  
  348.50  0.0000E+000  
  349.00  0.0000E+000  
  349.50  0.0000E+000  
  350.00  0.0000E+000  
  350.50  0.0000E+000  
  351.00  0.0000E+000  
  351.50  0.0000E+000  
  352.00  0.0000E+000  
  352.50  0.0000E+000  
  353.00  0.0000E+000  
  353.50  0.0000E+000  
  354.00  0.0000E+000  
  354.50  0.0000E+000  
  355.00  0.0000E+000  
  355.50  0.0000E+000  
  356.00  0.0000E+000  
  356.50  0.0000E+000  
  357.00  0.0000E+000  
  357.50  0.0000E+000  
  358.00  0.0000E+000  
  358.50  0.0000E+000  
  359.00  0.0000E+000  
  359.50  0.0000E+000  
  360.00  0.0000E+000  
  360.50  0.0000E+000  
  361.00  0.0000E+000  
  361.50  0.0000E+000  
  362.00  0.0000E+000  
  362.50  0.0000E+000  
  363.00  0.0000E+000  
  363.50  0.0000E+000  
  364.00  0.0000E+000  
  364.50  0.0000E+000  
  365.00  0.0000E+000  
  365.50  0.0000E+000  
  366.00  0.0000E+000  
  366.50  0.0000E+000  
  367.00  0.0000E+000  
  367.50  0.0000E+000  
  368.00  0.0000E+000  
  368.50  0.0000E+000  
  369.00  0.0000E+000  
  369.50  0.0000E+000  
  370.00  0.0000E+000  
  370.50  0.0000E+000  
  371.00  0.0000E+000  
  371.50  0.0000E+000  
  372.00  0.0000E+000  
  372.50  0.0000E+000  
  373.00  0.0000E+000  
  373.50  0.0000E+000  
  374.00  0.0000E+000  
  374.50  0.0000E+000  
  375.00  0.0000E+000  
  375.50  0.0000E+000  
  376.00  0.0000E+000  
  376.50  0.0000E+000  
  377.00  0.0000E+000  
  377.50  0.0000E+000  
  378.00  0.0000E+000  
  378.50  0.0000E+000  
  379.00  0.0000E+000  
  379.50  0.0000E+000  
  380.00  0.0000E+000  
  380.50  0.0000E+000  
  381.00  0.0000E+000  
  381.50  0.0000E+000  
  382.00  0.0000E+000  
  382.50  0.0000E+000  
  383.00  0.0000E+000  
  383.50  0.0000E+000  
  384.00  0.0000E+000  
  384.50  0.0000E+000  
  385.00  0.0000E+000  
  385.50  0.0000E+000  
  386.00  0.0000E+000  
  386.50  0.0000E+000  
  387.00  0.0000E+000  
  387.50  0.0000E+000  
  388.00  0.0000E+000  
  388.50  0.0000E+000  
  389.00  0.0000E+000  
  389.50  0.0000E+000  
  390.00  0.0000E+000  
  390.50  0.0000E+000  
  391.00  0.0000E+000  
  391.50  0.0000E+000  
  392.00  0.0000E+000  
  392.50  0.0000E+000  
  393.00  0.0000E+000  
  393.50  7.0915E-005  
  394.00  3.6815E-005  
  394.50  0.0000E+000  
  395.00  0.0000E+000  
  395.50  0.0000E+000  
  396.00  0.0000E+000  
  396.50  0.0000E+000  
  397.00  0.0000E+000  
  397.50  0.0000E+000  
  398.00  0.0000E+000  
  398.50  0.0000E+000  
  399.00  0.0000E+000  
  399.50  0.0000E+000  
  400.00  0.0000E+000  
  400.50  0.0000E+000  
  401.00  0.0000E+000  
  401.50  0.0000E+000  
  402.00  0.0000E+000  
  402.50  0.0000E+000  
  403.00  0.0000E+000  
  403.50  0.0000E+000  
  404.00  0.0000E+000  
  404.50  0.0000E+000  
  405.00  0.0000E+000  
  405.50  4.3502E-006  
  406.00  3.6697E-006  
  406.50  0.0000E+000  
  407.00  0.0000E+000  
  407.50  0.0000E+000  
  408.00  0.0000E+000  
  408.50  0.0000E+000  
  409.00  0.0000E+000  
  409.50  0.0000E+000  
  410.00  0.0000E+000  
  410.50  0.0000E+000  
  411.00  0.0000E+000  
  411.50  0.0000E+000  
  412.00  0.0000E+000  
  412.50  0.0000E+000  
  413.00  0.0000E+000  
  413.50  0.0000E+000  
  414.00  0.0000E+000  
  414.50  0.0000E+000  
  415.00  0.0000E+000  
  415.50  1.2441E-006  
  416.00  7.4688E-006  
  416.50  0.0000E+000  
  417.00  0.0000E+000  
  417.50  0.0000E+000  
  418.00  0.0000E+000  
  418.50  0.0000E+000  
  419.00  0.0000E+000  
  419.50  0.0000E+000  
  420.00  0.0000E+000  
  420.50  0.0000E+000  
  421.00  0.0000E+000  
  421.50  4.6226E-005  
  422.00  3.0296E-004  
  422.50  2.6373E-004  
  423.00  3.0831E-006  
  423.50  0.0000E+000  
  424.00  0.0000E+000  
  424.50  0.0000E+000  
  425.00  1.1535E-005  
  425.50  1.2118E-004  
  426.00  2.5576E-004  
  426.50  4.3018E-004  
  427.00  5.2656E-004  
  427.50  5.5744E-004  
  428.00  6.9616E-004  
  428.50  8.8008E-004  
  429.00  1.0870E-003  
  429.50  1.0011E-003  
  430.00  7.3010E-004  
  430.50  4.7443E-004  
  431.00  2.9226E-004  
  431.50  1.9163E-004  
  432.00  1.2110E-004  
  432.50  1.0861E-004  
  433.00  1.4388E-004  
  433.50  1.8815E-004  
  434.00  5.6702E-005  
  434.50  8.9981E-005  
  435.00  3.0354E-004  
  435.50  5.3593E-004  
  436.00  8.0309E-004  
  436.50  8.6112E-004  
  437.00  6.9145E-004  
  437.50  5.0769E-004  
  438.00  6.0622E-004  
  438.50  5.7216E-004  
  439.00  8.0824E-004  
  439.50  9.1049E-004  
  440.00  1.0839E-003  
  440.50  1.2463E-003  
  441.00  1.3334E-003  
  441.50  1.1158E-003  
  442.00  9.2840E-004  
  442.50  7.3707E-004  
  443.00  6.7923E-004  
  443.50  6.3757E-004  
  444.00  6.8304E-004  
  444.50  7.8102E-004  
  445.00  9.6070E-004  
  445.50  1.3342E-003  
  446.00  1.5927E-003  
  446.50  1.6208E-003  
  447.00  1.2749E-003  
  447.50  9.0263E-004  
  448.00  7.6630E-004  
  448.50  7.0135E-004  
  449.00  7.3247E-004  
  449.50  4.3926E-004  
  450.00  3.7535E-004  
  450.50  3.2798E-004  
  451.00  1.9317E-004  
  451.50  3.5773E-004  
  452.00  4.9729E-004  
  452.50  3.6103E-004  
  453.00  3.4123E-004  
  453.50  3.1867E-005  
  454.00  0.0000E+000  
  454.50  0.0000E+000  
  455.00  0.0000E+000  
  455.50  0.0000E+000  
  456.00  0.0000E+000  
  456.50  0.0000E+000  
  457.00  0.0000E+000  
  457.50  0.0000E+000  
  458.00  0.0000E+000  
  458.50  0.0000E+000  
  459.00  0.0000E+000  
  459.50  6.6486E-005  
  460.00  3.7289E-004  
  460.50  3.9230E-004  
  461.00  8.0028E-005  
  461.50  0.0000E+000  
  462.00  0.0000E+000  
  462.50  0.0000E+000  
  463.00  0.0000E+000  
  463.50  0.0000E+000  
  464.00  0.0000E+000  
  464.50  0.0000E+000  
  465.00  0.0000E+000  
  465.50  0.0000E+000  
  466.00  0.0000E+000  
  466.50  0.0000E+000  
  467.00  0.0000E+000  
  467.50  0.0000E+000  
  468.00  0.0000E+000  
  468.50  0.0000E+000  
  469.00  0.0000E+000  
  469.50  8.4085E-005  
  470.00  7.4168E-005  
  470.50  8.9741E-005  
  471.00  1.9201E-004  
  471.50  3.5626E-004  
  472.00  4.7436E-004  
  472.50  3.4903E-004  
  473.00  2.1177E-004  
  473.50  1.7173E-004  
  474.00  2.7479E-004  
  474.50  2.2781E-004  
  475.00  1.5767E-004  
  475.50  0.0000E+000  
  476.00  0.0000E+000  
  476.50  0.0000E+000  
  477.00  0.0000E+000  
  477.50  5.8583E-005  
  478.00  1.0173E-005  
  478.50  0.0000E+000  
  479.00  0.0000E+000  
  479.50  7.7366E-005  
  480.00  1.6793E-004  
  480.50  1.1509E-004  
  481.00  0.0000E+000  
  481.50  0.0000E+000  
  482.00  0.0000E+000  
  482.50  0.0000E+000  
  483.00  0.0000E+000  
  483.50  0.0000E+000  
  484.00  1.0053E-004  
  484.50  4.0644E-005  
  485.00  0.0000E+000  
  485.50  0.0000E+000  
  486.00  0.0000E+000  
  486.50  0.0000E+000  
  487.00  0.0000E+000  
  487.50  2.6720E-006  
  488.00  7.4163E-005  
  488.50  1.9120E-004  
  489.00  2.7753E-004  
  489.50  3.9903E-004  
  490.00  3.8942E-004  
  490.50  3.7590E-004  
  491.00  2.7038E-004  
  491.50  2.3533E-004  
  492.00  2.5494E-004  
  492.50  3.4526E-004  
  493.00  5.4177E-004  
  493.50  5.8071E-004  
  494.00  6.0183E-004  
  494.50  5.6670E-004  
  495.00  5.4211E-004  
  495.50  6.3645E-004  
  496.00  7.2757E-004  
  496.50  1.0042E-003  
  497.00  1.1766E-003  
  497.50  1.2341E-003  
  498.00  1.1965E-003  
  498.50  1.1543E-003  
  499.00  1.2232E-003  
  499.50  1.2507E-003  
  500.00  1.3476E-003  
  500.50  1.5153E-003  
  501.00  1.7168E-003  
  501.50  1.8579E-003  
  502.00  1.9549E-003  
  502.50  2.0681E-003  
  503.00  2.1052E-003  
  503.50  2.1610E-003  
  504.00  2.1969E-003  
  504.50  2.3173E-003  
  505.00  2.4214E-003  
  505.50  2.5539E-003  
  506.00  2.7150E-003  
  506.50  2.7902E-003  
  507.00  2.9953E-003  
  507.50  3.1868E-003  
  508.00  3.4352E-003  
  508.50  3.6306E-003  
  509.00  3.6668E-003  
  509.50  3.7111E-003  
  510.00  3.8100E-003  
  510.50  4.0353E-003  
  511.00  4.2026E-003  
  511.50  4.3498E-003  
  512.00  4.5639E-003  
  512.50  4.7454E-003  
  513.00  4.9886E-003  
  513.50  5.1754E-003  
  514.00  5.3158E-003  
  514.50  5.4612E-003  
  515.00  5.5085E-003  
  515.50  5.6309E-003  
  516.00  5.6994E-003  
  516.50  5.7595E-003  
  517.00  5.8457E-003  
  517.50  5.9208E-003  
  518.00  6.0255E-003  
  518.50  6.1784E-003  
  519.00  6.1759E-003  
  519.50  6.2713E-003  
  520.00  6.3808E-003  
  520.50  6.6629E-003  
  521.00  7.0610E-003  
  521.50  7.3036E-003  
  522.00  7.5004E-003  
  522.50  7.5142E-003  
  523.00  7.4663E-003  
  523.50  7.5850E-003  
  524.00  7.7030E-003  
  524.50  7.9311E-003  
  525.00  8.1205E-003  
  525.50  8.2646E-003  
  526.00  8.3633E-003  
  526.50  8.4381E-003  
  527.00  8.5603E-003  
  527.50  8.8581E-003  
  528.00  9.1334E-003  
  528.50  9.3308E-003  
  529.00  9.4202E-003  
  529.50  9.5543E-003  
  530.00  9.6212E-003  
  530.50  9.6198E-003  
  531.00  9.8091E-003  
  531.50  1.0010E-002  
  532.00  1.0209E-002  
  532.50  1.0323E-002  
  533.00  1.0457E-002  
  533.50  1.0528E-002  
  534.00  1.0690E-002  
  534.50  1.0799E-002  
  535.00  1.0931E-002  
  535.50  1.0974E-002  
  536.00  1.0800E-002  
  536.50  1.0737E-002  
  537.00  1.0917E-002  
  537.50  1.1143E-002  
  538.00  1.1403E-002  
  538.50  1.1665E-002  
  539.00  1.1912E-002  
  539.50  1.2163E-002  
  540.00  1.2248E-002  
  540.50  1.2338E-002  
  541.00  1.2491E-002  
  541.50  1.2705E-002  
  542.00  1.2819E-002  
  542.50  1.2981E-002  
  543.00  1.3056E-002  
  543.50  1.3245E-002  
  544.00  1.3317E-002  
  544.50  1.3451E-002  
  545.00  1.3529E-002  
  545.50  1.3738E-002  
  546.00  1.4075E-002  
  546.50  1.4334E-002  
  547.00  1.4578E-002  
  547.50  1.4613E-002  
  548.00  1.4716E-002  
  548.50  1.4945E-002  
  549.00  1.5163E-002  
  549.50  1.5440E-002  
  550.00  1.5642E-002  
  550.50  1.5786E-002  
  551.00  1.5877E-002  
  551.50  1.6058E-002  
  552.00  1.6378E-002  
  552.50  1.6636E-002  
  553.00  1.6888E-002  
  553.50  1.7172E-002  
  554.00  1.7652E-002  
  554.50  1.8024E-002  
  555.00  1.8238E-002  
  555.50  1.8108E-002  
  556.00  1.7960E-002  
  556.50  1.8118E-002  
  557.00  1.8433E-002  
  557.50  1.8957E-002  
  558.00  1.9459E-002  
  558.50  1.9910E-002  
  559.00  2.0221E-002  
  559.50  2.0512E-002  
  560.00  2.0913E-002  
  560.50  2.1320E-002  
  561.00  2.1699E-002  
  561.50  2.2099E-002  
  562.00  2.2463E-002  
  562.50  2.2906E-002  
  563.00  2.3326E-002  
  563.50  2.3754E-002  
  564.00  2.4185E-002  
  564.50  2.4538E-002  
  565.00  2.4881E-002  
  565.50  2.5335E-002  
  566.00  2.5918E-002  
  566.50  2.6399E-002  
  567.00  2.6810E-002  
  567.50  2.7165E-002  
  568.00  2.7575E-002  
  568.50  2.8152E-002  
  569.00  2.8559E-002  
  569.50  2.8882E-002  
  570.00  2.9338E-002  
  570.50  2.9925E-002  
  571.00  3.0650E-002  
  571.50  3.1251E-002  
  572.00  3.1808E-002  
  572.50  3.2356E-002  
  573.00  3.3076E-002  
  573.50  3.3828E-002  
  574.00  3.4652E-002  
  574.50  3.5299E-002  
  575.00  3.5912E-002  
  575.50  3.6534E-002  
  576.00  3.7090E-002  
  576.50  3.7670E-002  
  577.00  3.8296E-002  
  577.50  3.9170E-002  
  578.00  4.0202E-002  
  578.50  4.0999E-002  
  579.00  4.1528E-002  
  579.50  4.2033E-002  
  580.00  4.2740E-002  
  580.50  4.3661E-002  
  581.00  4.4658E-002  
  581.50  4.5380E-002  
  582.00  4.6046E-002  
  582.50  4.6737E-002  
  583.00  4.7734E-002  
  583.50  4.8734E-002  
  584.00  4.9553E-002  
  584.50  5.0288E-002  
  585.00  5.1130E-002  
  585.50  5.2061E-002  
  586.00  5.2860E-002  
  586.50  5.3570E-002  
  587.00  5.4369E-002  
  587.50  5.5213E-002  
  588.00  5.5784E-002  
  588.50  5.6444E-002  
  589.00  5.7270E-002  
  589.50  5.8391E-002  
  590.00  5.9476E-002  
  590.50  6.0346E-002  
  591.00  6.1079E-002  
  591.50  6.1779E-002  
  592.00  6.2557E-002  
  592.50  6.3403E-002  
  593.00  6.4215E-002  
  593.50  6.4876E-002  
  594.00  6.5795E-002  
  594.50  6.6795E-002  
  595.00  6.8001E-002  
  595.50  6.8804E-002  
  596.00  6.9611E-002  
  596.50  7.0082E-002  
  597.00  7.0607E-002  
  597.50  7.1202E-002  
  598.00  7.1838E-002  
  598.50  7.2700E-002  
  599.00  7.3684E-002  
  599.50  7.4581E-002  
  600.00  7.5410E-002  
  600.50  7.6076E-002  
  601.00  7.6890E-002  
  601.50  7.7445E-002  
  602.00  7.7722E-002  
  602.50  7.8003E-002  
  603.00  7.8401E-002  
  603.50  7.8923E-002  
  604.00  7.9157E-002  
  604.50  7.9558E-002  
  605.00  8.0075E-002  
  605.50  8.1036E-002  
  606.00  8.1680E-002  
  606.50  8.2274E-002  
  607.00  8.2545E-002  
  607.50  8.2978E-002  
  608.00  8.3538E-002  
  608.50  8.4224E-002  
  609.00  8.4794E-002  
  609.50  8.5033E-002  
  610.00  8.5273E-002  
  610.50  8.5525E-002  
  611.00  8.5950E-002  
  611.50  8.6366E-002  
  612.00  8.6871E-002  
  612.50  8.7164E-002  
  613.00  8.7071E-002  
  613.50  8.6837E-002  
  614.00  8.6930E-002  
  614.50  8.7438E-002  
  615.00  8.7794E-002  
  615.50  8.8034E-002  
  616.00  8.7974E-002  
  616.50  8.7987E-002  
  617.00  8.7765E-002  
  617.50  8.7333E-002  
  618.00  8.7040E-002  
  618.50  8.7154E-002  
  619.00  8.7497E-002  
  619.50  8.8129E-002  
  620.00  8.8254E-002  
  620.50  8.8293E-002  
  621.00  8.8196E-002  
  621.50  8.7943E-002  
  622.00  8.7586E-002  
  622.50  8.7100E-002  
  623.00  8.6856E-002  
  623.50  8.6814E-002  
  624.00  8.6407E-002  
  624.50  8.6192E-002  
  625.00  8.6053E-002  
  625.50  8.6189E-002  
  626.00  8.6211E-002  
  626.50  8.5911E-002  
  627.00  8.5039E-002  
  627.50  8.4221E-002  
  628.00  8.4038E-002  
  628.50  8.4452E-002  
  629.00  8.4308E-002  
  629.50  8.3703E-002  
  630.00  8.3283E-002  
  630.50  8.3332E-002  
  631.00  8.3440E-002  
  631.50  8.3018E-002  
  632.00  8.2318E-002  
  632.50  8.1674E-002  
  633.00  8.1337E-002  
  633.50  8.1029E-002  
  634.00  8.0446E-002  
  634.50  7.9976E-002  
  635.00  7.9504E-002  
  635.50  7.8808E-002  
  636.00  7.8061E-002  
  636.50  7.7681E-002  
  637.00  7.7714E-002  
  637.50  7.7399E-002  
  638.00  7.6371E-002  
  638.50  7.5668E-002  
  639.00  7.5269E-002  
  639.50  7.5354E-002  
  640.00  7.4564E-002  
  640.50  7.3755E-002  
  641.00  7.3251E-002  
  641.50  7.3039E-002  
  642.00  7.2735E-002  
  642.50  7.2197E-002  
  643.00  7.1771E-002  
  643.50  7.1229E-002  
  644.00  7.0548E-002  
  644.50  6.9799E-002  
  645.00  6.9327E-002  
  645.50  6.8955E-002  
  646.00  6.8807E-002  
  646.50  6.8368E-002  
  647.00  6.7992E-002  
  647.50  6.7163E-002  
  648.00  6.6464E-002  
  648.50  6.5790E-002  
  649.00  6.5034E-002  
  649.50  6.4416E-002  
  650.00  6.3795E-002  
  650.50  6.3762E-002  
  651.00  6.3355E-002  
  651.50  6.2686E-002  
  652.00  6.1849E-002  
  652.50  6.1100E-002  
  653.00  6.0430E-002  
  653.50  5.9611E-002  
  654.00  5.9230E-002  
  654.50  5.8630E-002  
  655.00  5.7993E-002  
  655.50  5.7475E-002  
  656.00  5.7288E-002  
  656.50  5.7159E-002  
  657.00  5.6342E-002  
  657.50  5.5396E-002  
  658.00  5.4296E-002  
  658.50  5.3432E-002  
  659.00  5.3047E-002  
  659.50  5.2859E-002  
  660.00  5.2735E-002  
  660.50  5.2108E-002  
  661.00  5.1440E-002  
  661.50  5.0781E-002  
  662.00  4.9954E-002  
  662.50  4.9373E-002  
  663.00  4.8848E-002  
  663.50  4.8272E-002  
  664.00  4.7400E-002  
  664.50  4.6464E-002  
  665.00  4.6052E-002  
  665.50  4.5699E-002  
  666.00  4.5314E-002  
  666.50  4.4671E-002  
  667.00  4.3788E-002  
  667.50  4.2925E-002  
  668.00  4.2456E-002  
  668.50  4.2044E-002  
  669.00  4.1986E-002  
  669.50  4.1363E-002  
  670.00  4.0956E-002  
  670.50  4.0225E-002  
  671.00  3.9597E-002  
  671.50  3.8728E-002  
  672.00  3.8405E-002  
  672.50  3.8283E-002  
  673.00  3.8165E-002  
  673.50  3.7507E-002  
  674.00  3.6701E-002  
  674.50  3.6273E-002  
  675.00  3.5777E-002  
  675.50  3.5360E-002  
  676.00  3.4871E-002  
  676.50  3.4213E-002  
  677.00  3.3657E-002  
  677.50  3.3354E-002  
  678.00  3.3176E-002  
  678.50  3.2711E-002  
  679.00  3.1826E-002  
  679.50  3.1228E-002  
  680.00  3.0918E-002  
  680.50  3.0595E-002  
  681.00  3.0107E-002  
  681.50  2.9526E-002  
  682.00  2.9212E-002  
  682.50  2.9058E-002  
  683.00  2.8751E-002  
  683.50  2.8452E-002  
  684.00  2.8091E-002  
  684.50  2.7761E-002  
  685.00  2.7196E-002  
  685.50  2.6832E-002  
  686.00  2.6728E-002  
  686.50  2.6619E-002  
  687.00  2.6164E-002  
  687.50  2.5880E-002  
  688.00  2.5581E-002  
  688.50  2.5159E-002  
  689.00  2.4268E-002  
  689.50  2.3843E-002  
  690.00  2.3370E-002  
  690.50  2.2999E-002  
  691.00  2.2332E-002  
  691.50  2.2099E-002  
  692.00  2.1852E-002  
  692.50  2.1825E-002  
  693.00  2.1590E-002  
  693.50  2.1222E-002  
  694.00  2.0954E-002  
  694.50  2.0864E-002  
  695.00  2.0557E-002  
  695.50  2.0213E-002  
  696.00  1.9840E-002  
  696.50  1.9951E-002  
  697.00  1.9605E-002  
  697.50  1.9144E-002  
  698.00  1.8774E-002  
  698.50  1.8420E-002  
  699.00  1.7879E-002  
  699.50  1.7580E-002  
  700.00  1.7270E-002  
  700.50  1.7149E-002  
  701.00  1.6910E-002  
  701.50  1.6779E-002  
  702.00  1.6190E-002  
  702.50  1.5317E-002  
  703.00  1.4708E-002  
  703.50  1.4378E-002  
  704.00  1.4336E-002  
  704.50  1.4522E-002  
  705.00  1.4517E-002  
  705.50  1.4105E-002  
  706.00  1.3343E-002  
  706.50  1.3129E-002  
  707.00  1.3136E-002  
  707.50  1.3300E-002  
  708.00  1.3080E-002  
  708.50  1.3026E-002  
  709.00  1.2729E-002  
  709.50  1.2838E-002  
  710.00  1.2893E-002  
  710.50  1.2788E-002  
  711.00  1.2475E-002  
  711.50  1.2106E-002  
  712.00  1.2087E-002  
  712.50  1.1824E-002  
  713.00  1.1698E-002  
  713.50  1.1430E-002  
  714.00  1.1021E-002  
  714.50  1.0706E-002  
  715.00  1.0553E-002  
  715.50  1.0347E-002  
  716.00  1.0306E-002  
  716.50  1.0516E-002  
  717.00  1.0929E-002  
  717.50  1.0355E-002  
  718.00  9.7119E-003  
  718.50  8.9815E-003  
  719.00  8.5898E-003  
  719.50  8.9221E-003  
  720.00  9.5756E-003  
  720.50  9.5099E-003  
  721.00  8.5339E-003  
  721.50  7.5854E-003  
  722.00  7.6673E-003  
  722.50  7.9958E-003  
  723.00  8.2546E-003  
  723.50  8.0672E-003  
  724.00  7.8057E-003  
  724.50  8.0052E-003  
  725.00  8.1354E-003  
  725.50  7.6583E-003  
  726.00  6.9388E-003  
  726.50  6.8894E-003  
  727.00  6.9852E-003  
  727.50  6.9029E-003  
  728.00  6.5523E-003  
  728.50  6.4956E-003  
  729.00  6.3687E-003  
  729.50  6.0040E-003  
  730.00  5.5916E-003  
  730.50  5.7892E-003  
  731.00  6.4680E-003  
  731.50  6.6839E-003  
  732.00  6.6463E-003  
  732.50  6.6168E-003  
  733.00  7.0257E-003  
  733.50  6.8402E-003  
  734.00  5.9158E-003  
  734.50  4.9774E-003  
  735.00  4.7957E-003  
  735.50  5.2345E-003  
  736.00  5.4701E-003  
  736.50  5.5323E-003  
  737.00  5.3735E-003  
  737.50  4.9415E-003  
  738.00  4.0786E-003  
  738.50  3.5811E-003  
  739.00  3.7744E-003  
  739.50  4.2512E-003  
  740.00  4.5449E-003  
  740.50  3.9159E-003  
  741.00  3.6081E-003  
  741.50  3.8585E-003  
  742.00  3.7550E-003  
  742.50  3.2753E-003  
  743.00  2.9685E-003  
  743.50  3.4783E-003  
  744.00  3.7160E-003  
  744.50  3.6045E-003  
  745.00  3.2954E-003  
  745.50  3.2658E-003  
  746.00  3.0816E-003  
  746.50  3.2546E-003  
  747.00  3.5106E-003  
  747.50  3.6434E-003  
  748.00  2.8100E-003  
  748.50  2.3915E-003  
  749.00  2.3541E-003  
  749.50  2.8245E-003  
  750.00  2.7859E-003  
  750.50  2.9210E-003  
  751.00  3.1790E-003  
  751.50  3.3323E-003  
  752.00  3.0533E-003  
  752.50  2.7810E-003  
  753.00  2.3689E-003  
  753.50  2.3128E-003  
  754.00  2.2078E-003  
  754.50  2.8337E-003  
  755.00  2.6462E-003  
  755.50  2.2209E-003  
  756.00  1.5048E-003  
  756.50  1.9840E-003  
  757.00  2.2463E-003  
  757.50  2.5559E-003  
  758.00  2.4492E-003  
  758.50  2.4702E-003  
  759.00  2.2484E-003  
  759.50  1.9070E-003  
  760.00  1.5089E-003  
  760.50  1.5197E-003  
  761.00  1.7219E-003  
  761.50  1.5231E-003  
  762.00  1.5270E-003  
  762.50  1.6837E-003  
  763.00  1.7535E-003  
  763.50  1.5089E-003  
  764.00  9.3289E-004  
  764.50  6.8913E-004  
  765.00  4.3625E-004  
  765.50  6.1899E-004  
  766.00  7.7884E-004  
  766.50  1.3904E-003  
  767.00  1.1119E-003  
  767.50  4.0382E-004  
  768.00  3.7404E-004  
  768.50  5.1623E-004  
  769.00  5.8824E-004  
  769.50  8.8221E-004  
  770.00  1.5345E-003  
  770.50  2.3135E-003  
  771.00  2.6064E-003  
  771.50  2.1407E-003  
  772.00  1.7476E-003  
  772.50  1.4305E-003  
  773.00  1.3365E-003  
  773.50  9.7318E-004  
  774.00  1.1468E-003  
  774.50  1.7251E-003  
  775.00  1.7213E-003  
  775.50  1.3706E-003  
  776.00  1.1632E-003  
  776.50  8.7859E-004  
  777.00  4.3245E-004  
  777.50  7.6701E-005  
  778.00  6.0290E-006  
  778.50  3.9300E-004  
  779.00  5.7665E-004  
  779.50  2.3840E-004  
  780.00  0.0000E+000  
  780.50  4.6924E-004  
  781.00  1.2103E-003  
  781.50  7.4334E-004  
  782.00  0.0000E+000  
  782.50  1.0111E-004  
  783.00  7.3974E-004  
  783.50  4.5988E-004  
  784.00  4.0744E-004  
  784.50  6.1479E-004  
  785.00  1.3461E-003  
  785.50  1.1947E-003  
  786.00  7.5740E-004  
  786.50  6.1205E-004  
  787.00  6.3509E-004  
  787.50  8.7392E-004  
  788.00  8.9224E-005  
  788.50  0.0000E+000  
  789.00  0.0000E+000  
  789.50  0.0000E+000  
  790.00  0.0000E+000  
  790.50  0.0000E+000  
  791.00  0.0000E+000  
  791.50  0.0000E+000  
  792.00  0.0000E+000  
  792.50  0.0000E+000  
  793.00  0.0000E+000  
  793.50  1.1885E-003  
  794.00  1.4007E-003  
  794.50  4.4282E-004  
  795.00  0.0000E+000  
  795.50  0.0000E+000  
  796.00  0.0000E+000  
  796.50  0.0000E+000  
  797.00  0.0000E+000  
  797.50  0.0000E+000  
  798.00  0.0000E+000  
  798.50  0.0000E+000  
  799.00  0.0000E+000  
  799.50  2.5573E-005  
  800.00  2.6456E-004  
  800.50  2.7325E-004  
  801.00  5.1156E-004  
  801.50  4.4812E-004  
  802.00  7.2677E-004  
  802.50  3.1725E-004  
  803.00  2.0300E-004  
  803.50  0.0000E+000  
  804.00  0.0000E+000  
  804.50  0.0000E+000  
  805.00  0.0000E+000  
  805.50  0.0000E+000  
  806.00  0.0000E+000  
  806.50  0.0000E+000  
  807.00  0.0000E+000  
  807.50  0.0000E+000  
  808.00  0.0000E+000  
  808.50  0.0000E+000  
  809.00  0.0000E+000  
  809.50  0.0000E+000  
  810.00  0.0000E+000  
  810.50  0.0000E+000  
  811.00  0.0000E+000  
  811.50  0.0000E+000  
  812.00  0.0000E+000  
  812.50  0.0000E+000  
  813.00  0.0000E+000  
  813.50  0.0000E+000  
  814.00  0.0000E+000  
  814.50  0.0000E+000  
  815.00  0.0000E+000  
  815.50  0.0000E+000  
  816.00  0.0000E+000  
  816.50  0.0000E+000  
  817.00  0.0000E+000  
  817.50  0.0000E+000  
  818.00  4.6854E-006  
  818.50  4.4564E-004  
  819.00  1.5283E-004  
  819.50  0.0000E+000  
  820.00  0.0000E+000  
  820.50  0.0000E+000  
  821.00  0.0000E+000  
  821.50  0.0000E+000  
  822.00  0.0000E+000  
  822.50  0.0000E+000  
  823.00  0.0000E+000  
  823.50  0.0000E+000  
  824.00  0.0000E+000  
  824.50  0.0000E+000  
  825.00  0.0000E+000  
  825.50  0.0000E+000  
  826.00  0.0000E+000  
  826.50  0.0000E+000  
  827.00  0.0000E+000  
  827.50  0.0000E+000  
  828.00  0.0000E+000  
  828.50  0.0000E+000  
  829.00  0.0000E+000  
  829.50  0.0000E+000  
  830.00  0.0000E+000  
  830.50  0.0000E+000  
  831.00  0.0000E+000  
  831.50  0.0000E+000  
  832.00  0.0000E+000  
  832.50  0.0000E+000  
  833.00  5.3909E-004  
  833.50  9.3759E-005  
  834.00  0.0000E+000  
  834.50  0.0000E+000  
  835.00  0.0000E+000  
  835.50  0.0000E+000  
  836.00  0.0000E+000  
  836.50  0.0000E+000  
  837.00  0.0000E+000  
  837.50  0.0000E+000  
  838.00  0.0000E+000  
  838.50  0.0000E+000  
  839.00  0.0000E+000  
  839.50  0.0000E+000  
  840.00  0.0000E+000  
  840.50  0.0000E+000  
  841.00  0.0000E+000  
  841.50  0.0000E+000  
  842.00  0.0000E+000  
  842.50  0.0000E+000  
  843.00  0.0000E+000  
  843.50  0.0000E+000  
  844.00  0.0000E+000  
  844.50  0.0000E+000  
  845.00  0.0000E+000  
  845.50  0.0000E+000  
  846.00  0.0000E+000  
  846.50  0.0000E+000  
  847.00  0.0000E+000  
  847.50  0.0000E+000  
  848.00  0.0000E+000  
  848.50  0.0000E+000  
  849.00  0.0000E+000  
  849.50  0.0000E+000  
  850.00  0.0000E+000  
  850.50  0.0000E+000  
  851.00  0.0000E+000  
  851.50  0.0000E+000  
  852.00  0.0000E+000  
  852.50  0.0000E+000  
  853.00  0.0000E+000  
  853.50  1.5868E-004  
  854.00  0.0000E+000  
  854.50  0.0000E+000  
  855.00  0.0000E+000  
  855.50  0.0000E+000  
  856.00  0.0000E+000  
  856.50  0.0000E+000  
  857.00  0.0000E+000  
  857.50  0.0000E+000  
  858.00  0.0000E+000  
  858.50  0.0000E+000  
  859.00  3.7023E-004  
  859.50  0.0000E+000  
  860.00  1.3590E-004  
  860.50  2.9426E-005  
  861.00  0.0000E+000  
  861.50  0.0000E+000  
  862.00  0.0000E+000  
  862.50  0.0000E+000  
  863.00  0.0000E+000  
  863.50  0.0000E+000  
  864.00  0.0000E+000  
  864.50  0.0000E+000  
  865.00  0.0000E+000  
  865.50  0.0000E+000  
  866.00  0.0000E+000  
  866.50  0.0000E+000  
  867.00  0.0000E+000  
  867.50  0.0000E+000  
  868.00  0.0000E+000  
  868.50  0.0000E+000  
  869.00  4.4146E-004  
  869.50  9.0741E-004  
  870.00  0.0000E+000  
  870.50  0.0000E+000  
  871.00  0.0000E+000  
  871.50  0.0000E+000  
  872.00  0.0000E+000  
  872.50  0.0000E+000  
  873.00  0.0000E+000  
  873.50  0.0000E+000  
  874.00  5.7944E-005  
  874.50  0.0000E+000  
  875.00  0.0000E+000  
  875.50  0.0000E+000  
  876.00  0.0000E+000  
  876.50  0.0000E+000  
  877.00  0.0000E+000  
  877.50  0.0000E+000  
  878.00  0.0000E+000  
  878.50  0.0000E+000  
  879.00  0.0000E+000  
  879.50  0.0000E+000  
  880.00  0.0000E+000  
  880.50  0.0000E+000  
  881.00  0.0000E+000  
  881.50  0.0000E+000  
  882.00  0.0000E+000  
  882.50  0.0000E+000  
  883.00  0.0000E+000  
  883.50  0.0000E+000  
  884.00  0.0000E+000  
  884.50  0.0000E+000  
  885.00  0.0000E+000  
  885.50  0.0000E+000  
  886.00  0.0000E+000  
  886.50  0.0000E+000  
  887.00  0.0000E+000  
  887.50  0.0000E+000  
  888.00  0.0000E+000  
  888.50  0.0000E+000  
  889.00  0.0000E+000  
  889.50  0.0000E+000  
  890.00  0.0000E+000  
  890.50  0.0000E+000  
  891.00  0.0000E+000  
  891.50  0.0000E+000  
  892.00  0.0000E+000  
  892.50  0.0000E+000  
  893.00  1.2548E-004  
  893.50  2.1686E-004  
  894.00  0.0000E+000  
  894.50  0.0000E+000  
  895.00  0.0000E+000  
  895.50  0.0000E+000  
  896.00  0.0000E+000  
  896.50  0.0000E+000  
  897.00  0.0000E+000  
  897.50  0.0000E+000  
  898.00  0.0000E+000  
  898.50  9.7495E-005  
  899.00  7.9522E-004  
  899.50  2.8411E-006  
