
# From lspdd.org
# 
# Name: LED-Lot3-L1 QCPassed A19 -
# Indice spectral Valeur 
# MSI 0.06 
# SLI 0.19 
# IPI 0.83 
# Pourcentage de bleu 2.4 
# Caractéristique Valeur 
# CCT calculée (K) 1521 
# CCT du fabricant (K) 1500 
# Tension (V) 100 
# Puissance (W) 7.0 
# Efficacité lumineuse (Lum/W) ND 
#
# Image: '/app/system/img_1s/2801/medium_image1.JPG?1633620771'
# 

  273.00  0.0000E+000  
  273.50  0.0000E+000  
  274.00  0.0000E+000  
  274.50  0.0000E+000  
  275.00  0.0000E+000  
  275.50  0.0000E+000  
  276.00  0.0000E+000  
  276.50  0.0000E+000  
  277.00  0.0000E+000  
  277.50  0.0000E+000  
  278.00  0.0000E+000  
  278.50  0.0000E+000  
  279.00  0.0000E+000  
  279.50  0.0000E+000  
  280.00  0.0000E+000  
  280.50  0.0000E+000  
  281.00  0.0000E+000  
  281.50  0.0000E+000  
  282.00  0.0000E+000  
  282.50  0.0000E+000  
  283.00  0.0000E+000  
  283.50  0.0000E+000  
  284.00  0.0000E+000  
  284.50  0.0000E+000  
  285.00  0.0000E+000  
  285.50  0.0000E+000  
  286.00  0.0000E+000  
  286.50  0.0000E+000  
  287.00  0.0000E+000  
  287.50  0.0000E+000  
  288.00  0.0000E+000  
  288.50  0.0000E+000  
  289.00  0.0000E+000  
  289.50  0.0000E+000  
  290.00  0.0000E+000  
  290.50  0.0000E+000  
  291.00  0.0000E+000  
  291.50  0.0000E+000  
  292.00  0.0000E+000  
  292.50  0.0000E+000  
  293.00  0.0000E+000  
  293.50  0.0000E+000  
  294.00  0.0000E+000  
  294.50  0.0000E+000  
  295.00  0.0000E+000  
  295.50  0.0000E+000  
  296.00  0.0000E+000  
  296.50  0.0000E+000  
  297.00  0.0000E+000  
  297.50  0.0000E+000  
  298.00  0.0000E+000  
  298.50  0.0000E+000  
  299.00  0.0000E+000  
  299.50  0.0000E+000  
  300.00  0.0000E+000  
  300.50  0.0000E+000  
  301.00  0.0000E+000  
  301.50  0.0000E+000  
  302.00  0.0000E+000  
  302.50  0.0000E+000  
  303.00  0.0000E+000  
  303.50  0.0000E+000  
  304.00  0.0000E+000  
  304.50  0.0000E+000  
  305.00  0.0000E+000  
  305.50  0.0000E+000  
  306.00  0.0000E+000  
  306.50  0.0000E+000  
  307.00  0.0000E+000  
  307.50  0.0000E+000  
  308.00  2.7694E-005  
  308.50  1.4945E-004  
  309.00  2.2467E-004  
  309.50  3.7702E-004  
  310.00  2.2855E-004  
  310.50  1.6284E-005  
  311.00  0.0000E+000  
  311.50  0.0000E+000  
  312.00  0.0000E+000  
  312.50  0.0000E+000  
  313.00  0.0000E+000  
  313.50  0.0000E+000  
  314.00  0.0000E+000  
  314.50  0.0000E+000  
  315.00  0.0000E+000  
  315.50  0.0000E+000  
  316.00  0.0000E+000  
  316.50  0.0000E+000  
  317.00  0.0000E+000  
  317.50  1.6649E-005  
  318.00  2.2672E-005  
  318.50  8.7575E-007  
  319.00  0.0000E+000  
  319.50  0.0000E+000  
  320.00  0.0000E+000  
  320.50  0.0000E+000  
  321.00  0.0000E+000  
  321.50  0.0000E+000  
  322.00  0.0000E+000  
  322.50  0.0000E+000  
  323.00  0.0000E+000  
  323.50  0.0000E+000  
  324.00  0.0000E+000  
  324.50  0.0000E+000  
  325.00  0.0000E+000  
  325.50  0.0000E+000  
  326.00  0.0000E+000  
  326.50  0.0000E+000  
  327.00  0.0000E+000  
  327.50  0.0000E+000  
  328.00  0.0000E+000  
  328.50  0.0000E+000  
  329.00  0.0000E+000  
  329.50  0.0000E+000  
  330.00  0.0000E+000  
  330.50  0.0000E+000  
  331.00  0.0000E+000  
  331.50  0.0000E+000  
  332.00  0.0000E+000  
  332.50  0.0000E+000  
  333.00  0.0000E+000  
  333.50  0.0000E+000  
  334.00  1.0844E-004  
  334.50  3.9409E-004  
  335.00  3.7241E-004  
  335.50  3.2245E-004  
  336.00  0.0000E+000  
  336.50  0.0000E+000  
  337.00  0.0000E+000  
  337.50  0.0000E+000  
  338.00  0.0000E+000  
  338.50  0.0000E+000  
  339.00  0.0000E+000  
  339.50  0.0000E+000  
  340.00  0.0000E+000  
  340.50  0.0000E+000  
  341.00  0.0000E+000  
  341.50  0.0000E+000  
  342.00  0.0000E+000  
  342.50  0.0000E+000  
  343.00  0.0000E+000  
  343.50  0.0000E+000  
  344.00  0.0000E+000  
  344.50  0.0000E+000  
  345.00  0.0000E+000  
  345.50  0.0000E+000  
  346.00  0.0000E+000  
  346.50  0.0000E+000  
  347.00  0.0000E+000  
  347.50  0.0000E+000  
  348.00  0.0000E+000  
  348.50  0.0000E+000  
  349.00  0.0000E+000  
  349.50  0.0000E+000  
  350.00  0.0000E+000  
  350.50  0.0000E+000  
  351.00  0.0000E+000  
  351.50  0.0000E+000  
  352.00  0.0000E+000  
  352.50  0.0000E+000  
  353.00  0.0000E+000  
  353.50  0.0000E+000  
  354.00  0.0000E+000  
  354.50  0.0000E+000  
  355.00  0.0000E+000  
  355.50  0.0000E+000  
  356.00  0.0000E+000  
  356.50  0.0000E+000  
  357.00  0.0000E+000  
  357.50  0.0000E+000  
  358.00  0.0000E+000  
  358.50  0.0000E+000  
  359.00  3.6517E-005  
  359.50  1.6716E-004  
  360.00  6.8538E-005  
  360.50  1.5445E-005  
  361.00  2.7348E-004  
  361.50  5.2689E-004  
  362.00  2.6464E-004  
  362.50  1.6962E-005  
  363.00  0.0000E+000  
  363.50  0.0000E+000  
  364.00  0.0000E+000  
  364.50  0.0000E+000  
  365.00  0.0000E+000  
  365.50  0.0000E+000  
  366.00  0.0000E+000  
  366.50  0.0000E+000  
  367.00  0.0000E+000  
  367.50  0.0000E+000  
  368.00  0.0000E+000  
  368.50  0.0000E+000  
  369.00  0.0000E+000  
  369.50  0.0000E+000  
  370.00  0.0000E+000  
  370.50  0.0000E+000  
  371.00  0.0000E+000  
  371.50  0.0000E+000  
  372.00  0.0000E+000  
  372.50  0.0000E+000  
  373.00  0.0000E+000  
  373.50  0.0000E+000  
  374.00  0.0000E+000  
  374.50  0.0000E+000  
  375.00  0.0000E+000  
  375.50  0.0000E+000  
  376.00  0.0000E+000  
  376.50  0.0000E+000  
  377.00  0.0000E+000  
  377.50  0.0000E+000  
  378.00  0.0000E+000  
  378.50  0.0000E+000  
  379.00  0.0000E+000  
  379.50  0.0000E+000  
  380.00  0.0000E+000  
  380.50  0.0000E+000  
  381.00  0.0000E+000  
  381.50  0.0000E+000  
  382.00  0.0000E+000  
  382.50  1.4768E-006  
  383.00  0.0000E+000  
  383.50  0.0000E+000  
  384.00  0.0000E+000  
  384.50  0.0000E+000  
  385.00  0.0000E+000  
  385.50  1.7306E-004  
  386.00  9.6462E-005  
  386.50  0.0000E+000  
  387.00  0.0000E+000  
  387.50  0.0000E+000  
  388.00  0.0000E+000  
  388.50  0.0000E+000  
  389.00  0.0000E+000  
  389.50  9.0437E-005  
  390.00  4.9709E-004  
  390.50  7.1674E-004  
  391.00  5.3060E-004  
  391.50  3.5590E-004  
  392.00  1.2544E-004  
  392.50  1.1116E-004  
  393.00  1.8809E-004  
  393.50  0.0000E+000  
  394.00  0.0000E+000  
  394.50  0.0000E+000  
  395.00  0.0000E+000  
  395.50  0.0000E+000  
  396.00  0.0000E+000  
  396.50  0.0000E+000  
  397.00  0.0000E+000  
  397.50  0.0000E+000  
  398.00  0.0000E+000  
  398.50  0.0000E+000  
  399.00  1.4194E-005  
  399.50  2.4603E-004  
  400.00  2.5228E-004  
  400.50  0.0000E+000  
  401.00  0.0000E+000  
  401.50  0.0000E+000  
  402.00  0.0000E+000  
  402.50  0.0000E+000  
  403.00  0.0000E+000  
  403.50  0.0000E+000  
  404.00  0.0000E+000  
  404.50  0.0000E+000  
  405.00  9.4282E-005  
  405.50  2.1800E-004  
  406.00  1.7708E-004  
  406.50  0.0000E+000  
  407.00  0.0000E+000  
  407.50  0.0000E+000  
  408.00  0.0000E+000  
  408.50  0.0000E+000  
  409.00  0.0000E+000  
  409.50  0.0000E+000  
  410.00  0.0000E+000  
  410.50  0.0000E+000  
  411.00  0.0000E+000  
  411.50  0.0000E+000  
  412.00  0.0000E+000  
  412.50  0.0000E+000  
  413.00  0.0000E+000  
  413.50  0.0000E+000  
  414.00  2.0325E-004  
  414.50  1.8851E-004  
  415.00  2.3279E-005  
  415.50  4.8003E-005  
  416.00  0.0000E+000  
  416.50  0.0000E+000  
  417.00  0.0000E+000  
  417.50  0.0000E+000  
  418.00  0.0000E+000  
  418.50  0.0000E+000  
  419.00  0.0000E+000  
  419.50  0.0000E+000  
  420.00  0.0000E+000  
  420.50  7.9446E-005  
  421.00  1.9558E-004  
  421.50  5.3315E-004  
  422.00  1.0061E-003  
  422.50  1.2212E-003  
  423.00  1.0631E-003  
  423.50  6.7417E-004  
  424.00  3.7606E-004  
  424.50  3.5791E-004  
  425.00  5.3273E-004  
  425.50  5.0203E-004  
  426.00  5.5548E-004  
  426.50  7.3726E-004  
  427.00  9.0350E-004  
  427.50  9.5558E-004  
  428.00  7.0550E-004  
  428.50  5.4912E-004  
  429.00  5.9340E-004  
  429.50  6.7257E-004  
  430.00  6.9537E-004  
  430.50  6.7706E-004  
  431.00  8.3648E-004  
  431.50  8.7662E-004  
  432.00  6.8333E-004  
  432.50  4.3407E-004  
  433.00  3.7901E-005  
  433.50  0.0000E+000  
  434.00  0.0000E+000  
  434.50  1.1308E-005  
  435.00  2.7691E-004  
  435.50  7.3365E-004  
  436.00  9.6626E-004  
  436.50  1.0048E-003  
  437.00  8.9759E-004  
  437.50  8.6608E-004  
  438.00  1.1204E-003  
  438.50  9.9454E-004  
  439.00  7.6742E-004  
  439.50  4.3416E-004  
  440.00  3.2948E-004  
  440.50  5.9063E-004  
  441.00  9.0573E-004  
  441.50  1.0777E-003  
  442.00  9.2749E-004  
  442.50  1.0113E-003  
  443.00  1.1953E-003  
  443.50  1.2746E-003  
  444.00  1.4303E-003  
  444.50  1.2704E-003  
  445.00  1.2682E-003  
  445.50  1.1190E-003  
  446.00  8.7750E-004  
  446.50  8.0665E-004  
  447.00  7.0196E-004  
  447.50  7.9645E-004  
  448.00  7.9553E-004  
  448.50  7.4369E-004  
  449.00  9.4570E-004  
  449.50  9.9108E-004  
  450.00  1.0013E-003  
  450.50  8.8223E-004  
  451.00  5.4853E-004  
  451.50  5.3012E-004  
  452.00  6.6378E-004  
  452.50  6.3091E-004  
  453.00  5.2621E-004  
  453.50  2.9672E-004  
  454.00  1.6323E-005  
  454.50  0.0000E+000  
  455.00  0.0000E+000  
  455.50  0.0000E+000  
  456.00  0.0000E+000  
  456.50  0.0000E+000  
  457.00  0.0000E+000  
  457.50  0.0000E+000  
  458.00  0.0000E+000  
  458.50  0.0000E+000  
  459.00  1.7776E-004  
  459.50  3.7807E-004  
  460.00  4.0299E-004  
  460.50  1.3982E-004  
  461.00  0.0000E+000  
  461.50  0.0000E+000  
  462.00  0.0000E+000  
  462.50  1.6339E-004  
  463.00  3.2325E-004  
  463.50  3.6612E-004  
  464.00  4.0991E-004  
  464.50  3.1759E-004  
  465.00  2.2832E-004  
  465.50  2.1244E-004  
  466.00  7.3181E-005  
  466.50  4.6757E-005  
  467.00  1.6220E-005  
  467.50  0.0000E+000  
  468.00  0.0000E+000  
  468.50  6.2426E-005  
  469.00  1.7945E-004  
  469.50  3.0314E-004  
  470.00  3.3739E-004  
  470.50  2.4204E-004  
  471.00  2.0827E-004  
  471.50  2.5380E-004  
  472.00  3.4144E-004  
  472.50  2.1829E-004  
  473.00  1.0022E-004  
  473.50  5.9967E-005  
  474.00  8.7678E-005  
  474.50  2.3900E-004  
  475.00  2.1183E-004  
  475.50  4.2576E-005  
  476.00  0.0000E+000  
  476.50  0.0000E+000  
  477.00  0.0000E+000  
  477.50  0.0000E+000  
  478.00  1.0602E-005  
  478.50  9.0147E-005  
  479.00  8.2358E-005  
  479.50  6.3187E-005  
  480.00  5.6619E-005  
  480.50  4.8543E-006  
  481.00  5.2201E-005  
  481.50  9.0652E-005  
  482.00  1.3980E-004  
  482.50  2.3662E-004  
  483.00  2.9074E-004  
  483.50  2.6975E-004  
  484.00  1.1431E-004  
  484.50  1.3861E-006  
  485.00  0.0000E+000  
  485.50  1.7482E-004  
  486.00  4.6908E-004  
  486.50  4.8146E-004  
  487.00  2.9204E-004  
  487.50  1.0444E-004  
  488.00  4.4499E-005  
  488.50  2.1324E-004  
  489.00  3.1713E-004  
  489.50  4.7162E-004  
  490.00  5.2471E-004  
  490.50  5.6229E-004  
  491.00  6.4463E-004  
  491.50  6.6494E-004  
  492.00  6.7617E-004  
  492.50  5.6300E-004  
  493.00  5.0905E-004  
  493.50  4.2921E-004  
  494.00  4.8805E-004  
  494.50  5.2400E-004  
  495.00  6.0391E-004  
  495.50  6.4866E-004  
  496.00  6.4551E-004  
  496.50  7.6059E-004  
  497.00  9.1514E-004  
  497.50  1.1030E-003  
  498.00  1.2549E-003  
  498.50  1.2222E-003  
  499.00  1.2715E-003  
  499.50  1.2834E-003  
  500.00  1.3881E-003  
  500.50  1.6045E-003  
  501.00  1.6871E-003  
  501.50  1.8558E-003  
  502.00  1.9389E-003  
  502.50  2.0282E-003  
  503.00  2.1263E-003  
  503.50  2.1973E-003  
  504.00  2.2830E-003  
  504.50  2.3824E-003  
  505.00  2.4659E-003  
  505.50  2.5131E-003  
  506.00  2.6669E-003  
  506.50  2.7172E-003  
  507.00  2.9193E-003  
  507.50  3.1432E-003  
  508.00  3.4293E-003  
  508.50  3.6374E-003  
  509.00  3.7071E-003  
  509.50  3.6773E-003  
  510.00  3.6148E-003  
  510.50  3.7810E-003  
  511.00  4.0050E-003  
  511.50  4.2293E-003  
  512.00  4.3755E-003  
  512.50  4.5661E-003  
  513.00  4.6710E-003  
  513.50  4.8403E-003  
  514.00  4.9359E-003  
  514.50  5.0274E-003  
  515.00  5.1982E-003  
  515.50  5.4020E-003  
  516.00  5.5528E-003  
  516.50  5.6722E-003  
  517.00  5.7241E-003  
  517.50  5.7378E-003  
  518.00  5.8147E-003  
  518.50  5.9903E-003  
  519.00  6.1906E-003  
  519.50  6.4223E-003  
  520.00  6.5435E-003  
  520.50  6.6762E-003  
  521.00  6.8221E-003  
  521.50  7.1147E-003  
  522.00  7.2451E-003  
  522.50  7.2941E-003  
  523.00  7.2865E-003  
  523.50  7.4487E-003  
  524.00  7.6102E-003  
  524.50  7.8030E-003  
  525.00  7.8890E-003  
  525.50  7.9611E-003  
  526.00  8.0371E-003  
  526.50  8.1172E-003  
  527.00  8.2017E-003  
  527.50  8.4634E-003  
  528.00  8.6836E-003  
  528.50  8.8970E-003  
  529.00  8.9388E-003  
  529.50  8.9464E-003  
  530.00  9.0000E-003  
  530.50  8.9844E-003  
  531.00  9.1792E-003  
  531.50  9.3506E-003  
  532.00  9.6872E-003  
  532.50  9.9630E-003  
  533.00  1.0048E-002  
  533.50  1.0080E-002  
  534.00  1.0213E-002  
  534.50  1.0385E-002  
  535.00  1.0658E-002  
  535.50  1.0692E-002  
  536.00  1.0562E-002  
  536.50  1.0485E-002  
  537.00  1.0551E-002  
  537.50  1.0629E-002  
  538.00  1.0732E-002  
  538.50  1.0904E-002  
  539.00  1.1126E-002  
  539.50  1.1462E-002  
  540.00  1.1686E-002  
  540.50  1.1864E-002  
  541.00  1.2035E-002  
  541.50  1.2181E-002  
  542.00  1.2336E-002  
  542.50  1.2464E-002  
  543.00  1.2489E-002  
  543.50  1.2600E-002  
  544.00  1.2756E-002  
  544.50  1.2976E-002  
  545.00  1.3218E-002  
  545.50  1.3392E-002  
  546.00  1.3544E-002  
  546.50  1.3741E-002  
  547.00  1.3952E-002  
  547.50  1.4153E-002  
  548.00  1.4315E-002  
  548.50  1.4486E-002  
  549.00  1.4767E-002  
  549.50  1.5130E-002  
  550.00  1.5360E-002  
  550.50  1.5418E-002  
  551.00  1.5320E-002  
  551.50  1.5269E-002  
  552.00  1.5609E-002  
  552.50  1.5904E-002  
  553.00  1.6196E-002  
  553.50  1.6401E-002  
  554.00  1.6723E-002  
  554.50  1.6982E-002  
  555.00  1.7179E-002  
  555.50  1.7203E-002  
  556.00  1.7355E-002  
  556.50  1.7848E-002  
  557.00  1.8188E-002  
  557.50  1.8506E-002  
  558.00  1.8672E-002  
  558.50  1.8973E-002  
  559.00  1.9439E-002  
  559.50  1.9802E-002  
  560.00  2.0249E-002  
  560.50  2.0609E-002  
  561.00  2.0898E-002  
  561.50  2.1053E-002  
  562.00  2.1181E-002  
  562.50  2.1457E-002  
  563.00  2.1883E-002  
  563.50  2.2327E-002  
  564.00  2.2787E-002  
  564.50  2.3034E-002  
  565.00  2.3299E-002  
  565.50  2.3770E-002  
  566.00  2.4370E-002  
  566.50  2.4823E-002  
  567.00  2.4996E-002  
  567.50  2.5261E-002  
  568.00  2.5750E-002  
  568.50  2.6441E-002  
  569.00  2.7170E-002  
  569.50  2.7785E-002  
  570.00  2.8345E-002  
  570.50  2.8792E-002  
  571.00  2.9177E-002  
  571.50  2.9516E-002  
  572.00  3.0032E-002  
  572.50  3.0540E-002  
  573.00  3.1160E-002  
  573.50  3.1841E-002  
  574.00  3.2574E-002  
  574.50  3.3465E-002  
  575.00  3.3986E-002  
  575.50  3.4345E-002  
  576.00  3.4741E-002  
  576.50  3.5614E-002  
  577.00  3.6585E-002  
  577.50  3.7489E-002  
  578.00  3.8009E-002  
  578.50  3.8564E-002  
  579.00  3.9085E-002  
  579.50  3.9771E-002  
  580.00  4.0616E-002  
  580.50  4.1281E-002  
  581.00  4.2039E-002  
  581.50  4.2576E-002  
  582.00  4.3081E-002  
  582.50  4.3648E-002  
  583.00  4.4264E-002  
  583.50  4.5175E-002  
  584.00  4.6036E-002  
  584.50  4.6717E-002  
  585.00  4.7573E-002  
  585.50  4.8611E-002  
  586.00  4.9706E-002  
  586.50  5.0697E-002  
  587.00  5.1561E-002  
  587.50  5.2400E-002  
  588.00  5.3205E-002  
  588.50  5.3863E-002  
  589.00  5.4537E-002  
  589.50  5.5280E-002  
  590.00  5.6130E-002  
  590.50  5.6889E-002  
  591.00  5.7350E-002  
  591.50  5.7737E-002  
  592.00  5.8239E-002  
  592.50  5.9043E-002  
  593.00  6.0020E-002  
  593.50  6.1047E-002  
  594.00  6.2217E-002  
  594.50  6.3028E-002  
  595.00  6.3636E-002  
  595.50  6.3994E-002  
  596.00  6.4955E-002  
  596.50  6.5933E-002  
  597.00  6.7154E-002  
  597.50  6.7862E-002  
  598.00  6.8434E-002  
  598.50  6.8677E-002  
  599.00  6.9339E-002  
  599.50  6.9881E-002  
  600.00  7.0512E-002  
  600.50  7.1093E-002  
  601.00  7.1908E-002  
  601.50  7.2626E-002  
  602.00  7.3170E-002  
  602.50  7.3698E-002  
  603.00  7.4434E-002  
  603.50  7.4877E-002  
  604.00  7.5273E-002  
  604.50  7.5804E-002  
  605.00  7.6367E-002  
  605.50  7.6803E-002  
  606.00  7.7132E-002  
  606.50  7.7561E-002  
  607.00  7.7933E-002  
  607.50  7.8287E-002  
  608.00  7.8415E-002  
  608.50  7.8643E-002  
  609.00  7.8935E-002  
  609.50  7.9399E-002  
  610.00  8.0121E-002  
  610.50  8.0392E-002  
  611.00  8.0436E-002  
  611.50  8.0589E-002  
  612.00  8.0844E-002  
  612.50  8.1061E-002  
  613.00  8.0940E-002  
  613.50  8.1035E-002  
  614.00  8.1669E-002  
  614.50  8.2196E-002  
  615.00  8.2349E-002  
  615.50  8.2190E-002  
  616.00  8.2100E-002  
  616.50  8.2149E-002  
  617.00  8.1837E-002  
  617.50  8.1821E-002  
  618.00  8.1975E-002  
  618.50  8.2494E-002  
  619.00  8.2404E-002  
  619.50  8.1945E-002  
  620.00  8.1686E-002  
  620.50  8.1795E-002  
  621.00  8.2234E-002  
  621.50  8.2357E-002  
  622.00  8.2314E-002  
  622.50  8.1883E-002  
  623.00  8.1435E-002  
  623.50  8.0989E-002  
  624.00  8.0624E-002  
  624.50  8.0476E-002  
  625.00  8.0432E-002  
  625.50  8.0447E-002  
  626.00  8.0110E-002  
  626.50  7.9756E-002  
  627.00  7.9324E-002  
  627.50  7.9244E-002  
  628.00  7.9182E-002  
  628.50  7.9272E-002  
  629.00  7.8919E-002  
  629.50  7.8278E-002  
  630.00  7.7815E-002  
  630.50  7.7518E-002  
  631.00  7.7647E-002  
  631.50  7.7535E-002  
  632.00  7.7316E-002  
  632.50  7.6717E-002  
  633.00  7.6238E-002  
  633.50  7.5947E-002  
  634.00  7.5659E-002  
  634.50  7.5112E-002  
  635.00  7.4351E-002  
  635.50  7.3930E-002  
  636.00  7.3765E-002  
  636.50  7.3535E-002  
  637.00  7.3023E-002  
  637.50  7.2315E-002  
  638.00  7.1613E-002  
  638.50  7.1262E-002  
  639.00  7.0937E-002  
  639.50  7.0694E-002  
  640.00  7.0149E-002  
  640.50  6.9669E-002  
  641.00  6.9015E-002  
  641.50  6.8238E-002  
  642.00  6.7694E-002  
  642.50  6.7589E-002  
  643.00  6.7297E-002  
  643.50  6.6607E-002  
  644.00  6.5766E-002  
  644.50  6.5047E-002  
  645.00  6.4555E-002  
  645.50  6.4031E-002  
  646.00  6.3998E-002  
  646.50  6.4064E-002  
  647.00  6.3632E-002  
  647.50  6.2859E-002  
  648.00  6.1895E-002  
  648.50  6.1326E-002  
  649.00  6.0946E-002  
  649.50  6.0481E-002  
  650.00  5.9687E-002  
  650.50  5.9019E-002  
  651.00  5.8187E-002  
  651.50  5.7516E-002  
  652.00  5.6945E-002  
  652.50  5.6636E-002  
  653.00  5.6718E-002  
  653.50  5.6322E-002  
  654.00  5.5878E-002  
  654.50  5.5107E-002  
  655.00  5.4555E-002  
  655.50  5.3941E-002  
  656.00  5.3402E-002  
  656.50  5.2822E-002  
  657.00  5.2036E-002  
  657.50  5.1335E-002  
  658.00  5.0771E-002  
  658.50  5.0558E-002  
  659.00  5.0331E-002  
  659.50  5.0147E-002  
  660.00  4.9728E-002  
  660.50  4.9107E-002  
  661.00  4.8255E-002  
  661.50  4.7707E-002  
  662.00  4.7029E-002  
  662.50  4.6569E-002  
  663.00  4.5805E-002  
  663.50  4.5408E-002  
  664.00  4.4658E-002  
  664.50  4.4011E-002  
  665.00  4.3103E-002  
  665.50  4.2476E-002  
  666.00  4.1854E-002  
  666.50  4.1472E-002  
  667.00  4.0987E-002  
  667.50  4.0735E-002  
  668.00  4.0436E-002  
  668.50  3.9985E-002  
  669.00  3.9569E-002  
  669.50  3.8960E-002  
  670.00  3.8339E-002  
  670.50  3.7830E-002  
  671.00  3.7405E-002  
  671.50  3.6943E-002  
  672.00  3.6542E-002  
  672.50  3.6230E-002  
  673.00  3.5860E-002  
  673.50  3.5274E-002  
  674.00  3.4692E-002  
  674.50  3.4352E-002  
  675.00  3.4002E-002  
  675.50  3.3740E-002  
  676.00  3.3478E-002  
  676.50  3.2657E-002  
  677.00  3.2157E-002  
  677.50  3.1721E-002  
  678.00  3.1450E-002  
  678.50  3.0612E-002  
  679.00  3.0047E-002  
  679.50  2.9727E-002  
  680.00  2.9738E-002  
  680.50  2.8923E-002  
  681.00  2.8188E-002  
  681.50  2.7470E-002  
  682.00  2.7156E-002  
  682.50  2.7039E-002  
  683.00  2.6939E-002  
  683.50  2.6928E-002  
  684.00  2.6616E-002  
  684.50  2.5682E-002  
  685.00  2.4834E-002  
  685.50  2.4420E-002  
  686.00  2.4451E-002  
  686.50  2.4250E-002  
  687.00  2.3733E-002  
  687.50  2.3527E-002  
  688.00  2.3109E-002  
  688.50  2.2740E-002  
  689.00  2.2112E-002  
  689.50  2.1864E-002  
  690.00  2.1410E-002  
  690.50  2.1099E-002  
  691.00  2.1094E-002  
  691.50  2.1092E-002  
  692.00  2.0837E-002  
  692.50  2.0243E-002  
  693.00  2.0207E-002  
  693.50  2.0317E-002  
  694.00  2.0295E-002  
  694.50  1.9507E-002  
  695.00  1.8755E-002  
  695.50  1.8467E-002  
  696.00  1.8666E-002  
  696.50  1.8766E-002  
  697.00  1.8426E-002  
  697.50  1.7896E-002  
  698.00  1.7601E-002  
  698.50  1.7400E-002  
  699.00  1.7120E-002  
  699.50  1.6689E-002  
  700.00  1.6042E-002  
  700.50  1.5778E-002  
  701.00  1.5692E-002  
  701.50  1.5452E-002  
  702.00  1.4926E-002  
  702.50  1.4636E-002  
  703.00  1.4473E-002  
  703.50  1.4236E-002  
  704.00  1.3876E-002  
  704.50  1.3816E-002  
  705.00  1.3314E-002  
  705.50  1.2900E-002  
  706.00  1.2443E-002  
  706.50  1.2204E-002  
  707.00  1.2067E-002  
  707.50  1.2093E-002  
  708.00  1.2303E-002  
  708.50  1.2236E-002  
  709.00  1.2200E-002  
  709.50  1.2058E-002  
  710.00  1.1983E-002  
  710.50  1.1690E-002  
  711.00  1.1590E-002  
  711.50  1.1520E-002  
  712.00  1.1462E-002  
  712.50  1.1116E-002  
  713.00  1.0945E-002  
  713.50  1.0774E-002  
  714.00  1.0438E-002  
  714.50  1.0186E-002  
  715.00  9.7869E-003  
  715.50  9.4646E-003  
  716.00  9.1321E-003  
  716.50  9.0431E-003  
  717.00  9.0557E-003  
  717.50  8.8663E-003  
  718.00  8.7330E-003  
  718.50  8.5688E-003  
  719.00  8.5660E-003  
  719.50  8.8974E-003  
  720.00  9.0255E-003  
  720.50  8.7926E-003  
  721.00  8.2320E-003  
  721.50  7.7759E-003  
  722.00  7.5006E-003  
  722.50  7.3312E-003  
  723.00  7.4364E-003  
  723.50  7.5145E-003  
  724.00  7.6854E-003  
  724.50  7.8747E-003  
  725.00  7.8788E-003  
  725.50  7.4201E-003  
  726.00  7.0021E-003  
  726.50  6.9418E-003  
  727.00  6.9293E-003  
  727.50  6.7302E-003  
  728.00  6.6287E-003  
  728.50  6.2968E-003  
  729.00  5.8910E-003  
  729.50  5.2372E-003  
  730.00  4.8173E-003  
  730.50  4.5766E-003  
  731.00  4.8820E-003  
  731.50  5.3162E-003  
  732.00  5.6428E-003  
  732.50  6.0142E-003  
  733.00  6.3417E-003  
  733.50  6.4581E-003  
  734.00  6.1327E-003  
  734.50  5.9303E-003  
  735.00  5.8556E-003  
  735.50  5.6550E-003  
  736.00  5.3798E-003  
  736.50  5.2902E-003  
  737.00  4.9358E-003  
  737.50  4.4613E-003  
  738.00  3.8836E-003  
  738.50  3.6517E-003  
  739.00  3.6975E-003  
  739.50  3.7686E-003  
  740.00  3.9995E-003  
  740.50  3.4509E-003  
  741.00  3.2616E-003  
  741.50  3.5922E-003  
  742.00  3.8803E-003  
  742.50  3.7240E-003  
  743.00  3.0331E-003  
  743.50  3.2662E-003  
  744.00  3.6897E-003  
  744.50  4.1664E-003  
  745.00  3.7612E-003  
  745.50  3.7666E-003  
  746.00  3.8169E-003  
  746.50  4.4317E-003  
  747.00  4.2260E-003  
  747.50  4.0078E-003  
  748.00  3.3045E-003  
  748.50  3.2672E-003  
  749.00  3.3999E-003  
  749.50  3.4621E-003  
  750.00  3.2926E-003  
  750.50  2.9586E-003  
  751.00  3.2521E-003  
  751.50  3.4335E-003  
  752.00  3.5700E-003  
  752.50  3.5887E-003  
  753.00  3.3228E-003  
  753.50  2.8897E-003  
  754.00  2.6418E-003  
  754.50  2.8073E-003  
  755.00  2.6532E-003  
  755.50  2.4132E-003  
  756.00  2.2957E-003  
  756.50  2.7755E-003  
  757.00  2.9220E-003  
  757.50  2.5030E-003  
  758.00  2.1333E-003  
  758.50  2.3409E-003  
  759.00  2.8732E-003  
  759.50  2.6608E-003  
  760.00  1.8607E-003  
  760.50  1.2970E-003  
  761.00  1.3240E-003  
  761.50  1.1724E-003  
  762.00  1.1701E-003  
  762.50  1.0803E-003  
  763.00  1.1350E-003  
  763.50  1.2929E-003  
  764.00  1.3912E-003  
  764.50  1.1126E-003  
  765.00  8.6360E-004  
  765.50  7.4997E-004  
  766.00  7.7412E-004  
  766.50  6.0456E-004  
  767.00  3.3302E-004  
  767.50  0.0000E+000  
  768.00  3.4360E-004  
  768.50  6.5297E-004  
  769.00  1.0676E-003  
  769.50  1.6771E-003  
  770.00  2.3269E-003  
  770.50  2.3240E-003  
  771.00  1.4270E-003  
  771.50  5.6788E-004  
  772.00  6.2665E-004  
  772.50  3.2747E-004  
  773.00  0.0000E+000  
  773.50  8.4730E-005  
  774.00  1.4529E-003  
  774.50  2.0225E-003  
  775.00  2.0007E-003  
  775.50  1.5428E-003  
  776.00  1.5551E-003  
  776.50  1.3402E-003  
  777.00  1.1272E-003  
  777.50  1.1042E-003  
  778.00  1.5282E-003  
  778.50  1.8713E-003  
  779.00  1.2600E-003  
  779.50  9.7521E-005  
  780.00  0.0000E+000  
  780.50  6.1707E-004  
  781.00  1.5616E-003  
  781.50  1.5684E-003  
  782.00  6.4321E-004  
  782.50  1.5448E-005  
  783.00  0.0000E+000  
  783.50  0.0000E+000  
  784.00  8.5500E-004  
  784.50  1.8167E-003  
  785.00  2.2682E-003  
  785.50  1.1271E-003  
  786.00  4.2247E-004  
  786.50  3.8773E-004  
  787.00  1.0319E-003  
  787.50  1.2549E-003  
  788.00  9.5171E-004  
  788.50  1.1426E-003  
  789.00  4.9737E-004  
  789.50  1.6387E-004  
  790.00  3.5242E-004  
  790.50  4.4703E-004  
  791.00  0.0000E+000  
  791.50  0.0000E+000  
  792.00  0.0000E+000  
  792.50  0.0000E+000  
  793.00  4.6512E-004  
  793.50  1.3189E-003  
  794.00  1.5287E-003  
  794.50  1.0587E-003  
  795.00  1.0132E-003  
  795.50  8.8890E-004  
  796.00  3.9012E-004  
  796.50  0.0000E+000  
  797.00  0.0000E+000  
  797.50  0.0000E+000  
  798.00  0.0000E+000  
  798.50  0.0000E+000  
  799.00  0.0000E+000  
  799.50  4.3751E-004  
  800.00  7.6631E-004  
  800.50  3.1824E-004  
  801.00  0.0000E+000  
  801.50  7.1793E-004  
  802.00  1.8758E-003  
  802.50  2.0226E-003  
  803.00  8.5965E-004  
  803.50  1.8461E-004  
  804.00  0.0000E+000  
  804.50  0.0000E+000  
  805.00  0.0000E+000  
  805.50  0.0000E+000  
  806.00  0.0000E+000  
  806.50  0.0000E+000  
  807.00  0.0000E+000  
  807.50  0.0000E+000  
  808.00  0.0000E+000  
  808.50  7.5583E-004  
  809.00  4.6741E-004  
  809.50  6.9860E-004  
  810.00  1.0928E-004  
  810.50  5.7772E-004  
  811.00  6.5358E-004  
  811.50  4.1445E-004  
  812.00  0.0000E+000  
  812.50  0.0000E+000  
  813.00  0.0000E+000  
  813.50  1.2282E-004  
  814.00  0.0000E+000  
  814.50  4.7777E-005  
  815.00  2.3915E-004  
  815.50  0.0000E+000  
  816.00  0.0000E+000  
  816.50  1.5948E-004  
  817.00  1.1641E-003  
  817.50  1.1984E-003  
  818.00  2.9745E-004  
  818.50  0.0000E+000  
  819.00  0.0000E+000  
  819.50  0.0000E+000  
  820.00  0.0000E+000  
  820.50  0.0000E+000  
  821.00  0.0000E+000  
  821.50  0.0000E+000  
  822.00  1.1659E-003  
  822.50  1.0699E-003  
  823.00  2.5503E-004  
  823.50  0.0000E+000  
  824.00  2.1731E-004  
  824.50  0.0000E+000  
  825.00  0.0000E+000  
  825.50  0.0000E+000  
  826.00  0.0000E+000  
  826.50  0.0000E+000  
  827.00  0.0000E+000  
  827.50  0.0000E+000  
  828.00  0.0000E+000  
  828.50  0.0000E+000  
  829.00  0.0000E+000  
  829.50  0.0000E+000  
  830.00  0.0000E+000  
  830.50  0.0000E+000  
  831.00  0.0000E+000  
  831.50  0.0000E+000  
  832.00  0.0000E+000  
  832.50  1.1150E-003  
  833.00  2.2268E-003  
  833.50  8.9305E-004  
  834.00  0.0000E+000  
  834.50  0.0000E+000  
  835.00  0.0000E+000  
  835.50  0.0000E+000  
  836.00  0.0000E+000  
  836.50  0.0000E+000  
  837.00  0.0000E+000  
  837.50  0.0000E+000  
  838.00  0.0000E+000  
  838.50  0.0000E+000  
  839.00  0.0000E+000  
  839.50  0.0000E+000  
  840.00  0.0000E+000  
  840.50  7.6822E-004  
  841.00  1.5643E-003  
  841.50  0.0000E+000  
  842.00  0.0000E+000  
  842.50  0.0000E+000  
  843.00  0.0000E+000  
  843.50  0.0000E+000  
  844.00  0.0000E+000  
  844.50  0.0000E+000  
  845.00  0.0000E+000  
  845.50  0.0000E+000  
  846.00  0.0000E+000  
  846.50  0.0000E+000  
  847.00  0.0000E+000  
  847.50  0.0000E+000  
  848.00  0.0000E+000  
  848.50  0.0000E+000  
  849.00  0.0000E+000  
  849.50  0.0000E+000  
  850.00  0.0000E+000  
  850.50  1.7428E-004  
  851.00  0.0000E+000  
  851.50  0.0000E+000  
  852.00  7.4322E-005  
  852.50  2.0795E-003  
  853.00  2.6138E-003  
  853.50  7.4160E-004  
  854.00  7.3099E-005  
  854.50  0.0000E+000  
  855.00  0.0000E+000  
  855.50  0.0000E+000  
  856.00  0.0000E+000  
  856.50  0.0000E+000  
  857.00  3.9136E-004  
  857.50  4.3538E-006  
  858.00  0.0000E+000  
  858.50  0.0000E+000  
  859.00  0.0000E+000  
  859.50  8.8073E-004  
  860.00  2.3439E-003  
  860.50  1.9621E-003  
  861.00  0.0000E+000  
  861.50  1.0003E-003  
  862.00  3.6552E-003  
  862.50  3.7970E-003  
  863.00  2.3930E-003  
  863.50  1.4958E-007  
  864.00  2.5787E-005  
  864.50  0.0000E+000  
  865.00  0.0000E+000  
  865.50  0.0000E+000  
  866.00  0.0000E+000  
  866.50  0.0000E+000  
  867.00  0.0000E+000  
  867.50  0.0000E+000  
  868.00  0.0000E+000  
  868.50  1.0841E-004  
  869.00  2.6310E-003  
  869.50  9.7603E-004  
  870.00  0.0000E+000  
  870.50  0.0000E+000  
  871.00  0.0000E+000  
  871.50  0.0000E+000  
  872.00  0.0000E+000  
  872.50  0.0000E+000  
  873.00  0.0000E+000  
  873.50  7.2406E-004  
  874.00  3.4905E-003  
  874.50  9.2437E-004  
  875.00  0.0000E+000  
  875.50  0.0000E+000  
  876.00  0.0000E+000  
  876.50  0.0000E+000  
  877.00  0.0000E+000  
  877.50  0.0000E+000  
  878.00  0.0000E+000  
  878.50  0.0000E+000  
  879.00  2.3927E-005  
  879.50  0.0000E+000  
  880.00  0.0000E+000  
  880.50  1.9734E-004  
  881.00  1.4706E-003  
  881.50  6.4161E-004  
  882.00  0.0000E+000  
  882.50  0.0000E+000  
  883.00  0.0000E+000  
  883.50  0.0000E+000  
  884.00  0.0000E+000  
  884.50  0.0000E+000  
  885.00  0.0000E+000  
  885.50  0.0000E+000  
  886.00  0.0000E+000  
  886.50  0.0000E+000  
  887.00  0.0000E+000  
  887.50  0.0000E+000  
  888.00  0.0000E+000  
  888.50  0.0000E+000  
  889.00  0.0000E+000  
  889.50  0.0000E+000  
  890.00  2.9358E-004  
  890.50  0.0000E+000  
  891.00  0.0000E+000  
  891.50  0.0000E+000  
  892.00  8.7493E-004  
  892.50  2.0257E-003  
  893.00  0.0000E+000  
  893.50  0.0000E+000  
  894.00  0.0000E+000  
  894.50  0.0000E+000  
  895.00  0.0000E+000  
  895.50  0.0000E+000  
  896.00  0.0000E+000  
  896.50  0.0000E+000  
  897.00  0.0000E+000  
  897.50  0.0000E+000  
  898.00  0.0000E+000  
  898.50  0.0000E+000  
  899.00  4.0562E-003  
  899.50  7.4502E-005  
