
# From lspdd.org
# 
# Name: LED-Lot5-L4 QCPassed A19 -
# Indice spectral Valeur 
# MSI 0.05 
# SLI 0.18 
# IPI 0.83 
# Pourcentage de bleu 2.0 
# Caractéristique Valeur 
# CCT calculée (K) 1500 
# CCT du fabricant (K) 1500 
# Tension (V) 100 
# Puissance (W) 7.0 
# Efficacité lumineuse (Lum/W) ND 
#
# Image: '/app/system/img_1s/2802/medium_image1.JPG?1633620772'
# 

  273.00  0.0000E+000  
  273.50  0.0000E+000  
  274.00  0.0000E+000  
  274.50  0.0000E+000  
  275.00  0.0000E+000  
  275.50  0.0000E+000  
  276.00  0.0000E+000  
  276.50  0.0000E+000  
  277.00  0.0000E+000  
  277.50  0.0000E+000  
  278.00  0.0000E+000  
  278.50  0.0000E+000  
  279.00  0.0000E+000  
  279.50  0.0000E+000  
  280.00  0.0000E+000  
  280.50  0.0000E+000  
  281.00  0.0000E+000  
  281.50  0.0000E+000  
  282.00  0.0000E+000  
  282.50  0.0000E+000  
  283.00  0.0000E+000  
  283.50  0.0000E+000  
  284.00  0.0000E+000  
  284.50  0.0000E+000  
  285.00  0.0000E+000  
  285.50  0.0000E+000  
  286.00  0.0000E+000  
  286.50  0.0000E+000  
  287.00  0.0000E+000  
  287.50  0.0000E+000  
  288.00  0.0000E+000  
  288.50  0.0000E+000  
  289.00  0.0000E+000  
  289.50  0.0000E+000  
  290.00  0.0000E+000  
  290.50  0.0000E+000  
  291.00  0.0000E+000  
  291.50  0.0000E+000  
  292.00  0.0000E+000  
  292.50  0.0000E+000  
  293.00  0.0000E+000  
  293.50  0.0000E+000  
  294.00  0.0000E+000  
  294.50  0.0000E+000  
  295.00  0.0000E+000  
  295.50  0.0000E+000  
  296.00  0.0000E+000  
  296.50  0.0000E+000  
  297.00  0.0000E+000  
  297.50  0.0000E+000  
  298.00  0.0000E+000  
  298.50  0.0000E+000  
  299.00  0.0000E+000  
  299.50  0.0000E+000  
  300.00  0.0000E+000  
  300.50  0.0000E+000  
  301.00  0.0000E+000  
  301.50  0.0000E+000  
  302.00  0.0000E+000  
  302.50  0.0000E+000  
  303.00  0.0000E+000  
  303.50  0.0000E+000  
  304.00  0.0000E+000  
  304.50  0.0000E+000  
  305.00  0.0000E+000  
  305.50  0.0000E+000  
  306.00  0.0000E+000  
  306.50  0.0000E+000  
  307.00  0.0000E+000  
  307.50  0.0000E+000  
  308.00  0.0000E+000  
  308.50  0.0000E+000  
  309.00  0.0000E+000  
  309.50  0.0000E+000  
  310.00  0.0000E+000  
  310.50  0.0000E+000  
  311.00  0.0000E+000  
  311.50  0.0000E+000  
  312.00  0.0000E+000  
  312.50  0.0000E+000  
  313.00  0.0000E+000  
  313.50  0.0000E+000  
  314.00  0.0000E+000  
  314.50  0.0000E+000  
  315.00  0.0000E+000  
  315.50  0.0000E+000  
  316.00  0.0000E+000  
  316.50  0.0000E+000  
  317.00  0.0000E+000  
  317.50  0.0000E+000  
  318.00  0.0000E+000  
  318.50  0.0000E+000  
  319.00  0.0000E+000  
  319.50  0.0000E+000  
  320.00  0.0000E+000  
  320.50  0.0000E+000  
  321.00  0.0000E+000  
  321.50  0.0000E+000  
  322.00  0.0000E+000  
  322.50  0.0000E+000  
  323.00  0.0000E+000  
  323.50  0.0000E+000  
  324.00  0.0000E+000  
  324.50  0.0000E+000  
  325.00  0.0000E+000  
  325.50  0.0000E+000  
  326.00  0.0000E+000  
  326.50  0.0000E+000  
  327.00  0.0000E+000  
  327.50  0.0000E+000  
  328.00  0.0000E+000  
  328.50  0.0000E+000  
  329.00  0.0000E+000  
  329.50  0.0000E+000  
  330.00  0.0000E+000  
  330.50  0.0000E+000  
  331.00  0.0000E+000  
  331.50  0.0000E+000  
  332.00  0.0000E+000  
  332.50  0.0000E+000  
  333.00  0.0000E+000  
  333.50  0.0000E+000  
  334.00  0.0000E+000  
  334.50  0.0000E+000  
  335.00  0.0000E+000  
  335.50  0.0000E+000  
  336.00  0.0000E+000  
  336.50  0.0000E+000  
  337.00  0.0000E+000  
  337.50  0.0000E+000  
  338.00  0.0000E+000  
  338.50  0.0000E+000  
  339.00  0.0000E+000  
  339.50  0.0000E+000  
  340.00  0.0000E+000  
  340.50  0.0000E+000  
  341.00  6.7385E-006  
  341.50  8.4591E-006  
  342.00  0.0000E+000  
  342.50  0.0000E+000  
  343.00  0.0000E+000  
  343.50  0.0000E+000  
  344.00  0.0000E+000  
  344.50  0.0000E+000  
  345.00  0.0000E+000  
  345.50  0.0000E+000  
  346.00  0.0000E+000  
  346.50  0.0000E+000  
  347.00  0.0000E+000  
  347.50  0.0000E+000  
  348.00  0.0000E+000  
  348.50  0.0000E+000  
  349.00  0.0000E+000  
  349.50  0.0000E+000  
  350.00  0.0000E+000  
  350.50  0.0000E+000  
  351.00  0.0000E+000  
  351.50  0.0000E+000  
  352.00  0.0000E+000  
  352.50  0.0000E+000  
  353.00  0.0000E+000  
  353.50  0.0000E+000  
  354.00  0.0000E+000  
  354.50  0.0000E+000  
  355.00  0.0000E+000  
  355.50  0.0000E+000  
  356.00  0.0000E+000  
  356.50  0.0000E+000  
  357.00  0.0000E+000  
  357.50  0.0000E+000  
  358.00  0.0000E+000  
  358.50  0.0000E+000  
  359.00  0.0000E+000  
  359.50  0.0000E+000  
  360.00  0.0000E+000  
  360.50  0.0000E+000  
  361.00  0.0000E+000  
  361.50  0.0000E+000  
  362.00  0.0000E+000  
  362.50  0.0000E+000  
  363.00  0.0000E+000  
  363.50  0.0000E+000  
  364.00  0.0000E+000  
  364.50  0.0000E+000  
  365.00  0.0000E+000  
  365.50  0.0000E+000  
  366.00  0.0000E+000  
  366.50  0.0000E+000  
  367.00  0.0000E+000  
  367.50  0.0000E+000  
  368.00  0.0000E+000  
  368.50  0.0000E+000  
  369.00  0.0000E+000  
  369.50  0.0000E+000  
  370.00  0.0000E+000  
  370.50  0.0000E+000  
  371.00  0.0000E+000  
  371.50  0.0000E+000  
  372.00  0.0000E+000  
  372.50  0.0000E+000  
  373.00  0.0000E+000  
  373.50  0.0000E+000  
  374.00  0.0000E+000  
  374.50  0.0000E+000  
  375.00  0.0000E+000  
  375.50  0.0000E+000  
  376.00  0.0000E+000  
  376.50  0.0000E+000  
  377.00  0.0000E+000  
  377.50  0.0000E+000  
  378.00  0.0000E+000  
  378.50  0.0000E+000  
  379.00  0.0000E+000  
  379.50  0.0000E+000  
  380.00  0.0000E+000  
  380.50  0.0000E+000  
  381.00  0.0000E+000  
  381.50  0.0000E+000  
  382.00  0.0000E+000  
  382.50  0.0000E+000  
  383.00  0.0000E+000  
  383.50  0.0000E+000  
  384.00  0.0000E+000  
  384.50  0.0000E+000  
  385.00  0.0000E+000  
  385.50  0.0000E+000  
  386.00  0.0000E+000  
  386.50  0.0000E+000  
  387.00  0.0000E+000  
  387.50  0.0000E+000  
  388.00  0.0000E+000  
  388.50  0.0000E+000  
  389.00  0.0000E+000  
  389.50  0.0000E+000  
  390.00  0.0000E+000  
  390.50  0.0000E+000  
  391.00  0.0000E+000  
  391.50  0.0000E+000  
  392.00  0.0000E+000  
  392.50  0.0000E+000  
  393.00  0.0000E+000  
  393.50  0.0000E+000  
  394.00  0.0000E+000  
  394.50  0.0000E+000  
  395.00  0.0000E+000  
  395.50  0.0000E+000  
  396.00  0.0000E+000  
  396.50  0.0000E+000  
  397.00  0.0000E+000  
  397.50  0.0000E+000  
  398.00  0.0000E+000  
  398.50  0.0000E+000  
  399.00  0.0000E+000  
  399.50  0.0000E+000  
  400.00  0.0000E+000  
  400.50  0.0000E+000  
  401.00  0.0000E+000  
  401.50  0.0000E+000  
  402.00  0.0000E+000  
  402.50  0.0000E+000  
  403.00  0.0000E+000  
  403.50  0.0000E+000  
  404.00  0.0000E+000  
  404.50  0.0000E+000  
  405.00  0.0000E+000  
  405.50  0.0000E+000  
  406.00  0.0000E+000  
  406.50  0.0000E+000  
  407.00  0.0000E+000  
  407.50  0.0000E+000  
  408.00  0.0000E+000  
  408.50  0.0000E+000  
  409.00  0.0000E+000  
  409.50  0.0000E+000  
  410.00  0.0000E+000  
  410.50  0.0000E+000  
  411.00  0.0000E+000  
  411.50  0.0000E+000  
  412.00  0.0000E+000  
  412.50  0.0000E+000  
  413.00  0.0000E+000  
  413.50  0.0000E+000  
  414.00  0.0000E+000  
  414.50  0.0000E+000  
  415.00  0.0000E+000  
  415.50  0.0000E+000  
  416.00  0.0000E+000  
  416.50  0.0000E+000  
  417.00  0.0000E+000  
  417.50  0.0000E+000  
  418.00  0.0000E+000  
  418.50  0.0000E+000  
  419.00  0.0000E+000  
  419.50  0.0000E+000  
  420.00  0.0000E+000  
  420.50  0.0000E+000  
  421.00  0.0000E+000  
  421.50  6.9338E-005  
  422.00  5.0089E-004  
  422.50  6.1326E-004  
  423.00  4.0314E-004  
  423.50  2.7562E-005  
  424.00  0.0000E+000  
  424.50  0.0000E+000  
  425.00  0.0000E+000  
  425.50  1.2668E-006  
  426.00  2.2978E-004  
  426.50  4.4754E-004  
  427.00  5.6836E-004  
  427.50  6.3795E-004  
  428.00  3.5175E-004  
  428.50  2.4147E-004  
  429.00  2.6327E-004  
  429.50  2.4925E-004  
  430.00  1.6365E-004  
  430.50  3.8512E-007  
  431.00  4.0580E-005  
  431.50  8.2126E-005  
  432.00  7.0330E-005  
  432.50  7.0076E-005  
  433.00  0.0000E+000  
  433.50  0.0000E+000  
  434.00  0.0000E+000  
  434.50  4.2967E-005  
  435.00  2.6633E-004  
  435.50  4.0816E-004  
  436.00  3.0506E-004  
  436.50  2.3940E-004  
  437.00  2.5701E-004  
  437.50  2.5245E-004  
  438.00  3.3006E-004  
  438.50  2.2421E-004  
  439.00  2.1515E-004  
  439.50  1.2895E-004  
  440.00  1.4161E-004  
  440.50  3.5501E-004  
  441.00  4.3208E-004  
  441.50  4.7474E-004  
  442.00  3.2195E-004  
  442.50  2.2923E-004  
  443.00  5.1637E-004  
  443.50  6.9818E-004  
  444.00  9.2930E-004  
  444.50  9.7946E-004  
  445.00  8.5463E-004  
  445.50  7.1597E-004  
  446.00  5.3113E-004  
  446.50  5.0584E-004  
  447.00  5.5436E-004  
  447.50  7.0468E-004  
  448.00  4.6494E-004  
  448.50  2.0925E-005  
  449.00  0.0000E+000  
  449.50  0.0000E+000  
  450.00  7.9017E-006  
  450.50  8.6693E-005  
  451.00  7.8397E-005  
  451.50  0.0000E+000  
  452.00  0.0000E+000  
  452.50  6.0091E-006  
  453.00  2.1310E-005  
  453.50  0.0000E+000  
  454.00  0.0000E+000  
  454.50  0.0000E+000  
  455.00  0.0000E+000  
  455.50  0.0000E+000  
  456.00  0.0000E+000  
  456.50  0.0000E+000  
  457.00  0.0000E+000  
  457.50  0.0000E+000  
  458.00  0.0000E+000  
  458.50  0.0000E+000  
  459.00  0.0000E+000  
  459.50  0.0000E+000  
  460.00  0.0000E+000  
  460.50  0.0000E+000  
  461.00  0.0000E+000  
  461.50  0.0000E+000  
  462.00  0.0000E+000  
  462.50  0.0000E+000  
  463.00  0.0000E+000  
  463.50  0.0000E+000  
  464.00  0.0000E+000  
  464.50  0.0000E+000  
  465.00  3.8186E-006  
  465.50  2.1602E-005  
  466.00  0.0000E+000  
  466.50  0.0000E+000  
  467.00  0.0000E+000  
  467.50  0.0000E+000  
  468.00  0.0000E+000  
  468.50  0.0000E+000  
  469.00  0.0000E+000  
  469.50  0.0000E+000  
  470.00  0.0000E+000  
  470.50  0.0000E+000  
  471.00  1.2732E-004  
  471.50  2.1267E-004  
  472.00  3.0546E-004  
  472.50  2.0762E-004  
  473.00  4.5275E-005  
  473.50  0.0000E+000  
  474.00  0.0000E+000  
  474.50  0.0000E+000  
  475.00  0.0000E+000  
  475.50  0.0000E+000  
  476.00  0.0000E+000  
  476.50  0.0000E+000  
  477.00  0.0000E+000  
  477.50  0.0000E+000  
  478.00  0.0000E+000  
  478.50  0.0000E+000  
  479.00  0.0000E+000  
  479.50  3.0136E-006  
  480.00  0.0000E+000  
  480.50  0.0000E+000  
  481.00  0.0000E+000  
  481.50  0.0000E+000  
  482.00  2.1638E-005  
  482.50  1.7592E-004  
  483.00  2.9704E-004  
  483.50  2.4106E-004  
  484.00  9.1004E-005  
  484.50  0.0000E+000  
  485.00  0.0000E+000  
  485.50  0.0000E+000  
  486.00  0.0000E+000  
  486.50  0.0000E+000  
  487.00  0.0000E+000  
  487.50  0.0000E+000  
  488.00  0.0000E+000  
  488.50  0.0000E+000  
  489.00  2.6490E-005  
  489.50  1.0176E-004  
  490.00  7.6118E-005  
  490.50  1.2024E-004  
  491.00  1.4359E-004  
  491.50  1.6899E-004  
  492.00  2.3206E-004  
  492.50  1.6086E-004  
  493.00  2.2383E-004  
  493.50  2.8576E-004  
  494.00  3.4455E-004  
  494.50  3.8515E-004  
  495.00  4.3623E-004  
  495.50  4.6562E-004  
  496.00  5.6074E-004  
  496.50  7.5571E-004  
  497.00  9.6507E-004  
  497.50  1.1781E-003  
  498.00  1.2903E-003  
  498.50  1.3123E-003  
  499.00  1.3421E-003  
  499.50  1.3340E-003  
  500.00  1.4447E-003  
  500.50  1.5257E-003  
  501.00  1.6310E-003  
  501.50  1.6341E-003  
  502.00  1.7098E-003  
  502.50  1.8551E-003  
  503.00  1.9859E-003  
  503.50  2.0566E-003  
  504.00  2.0919E-003  
  504.50  2.2095E-003  
  505.00  2.3523E-003  
  505.50  2.4934E-003  
  506.00  2.5533E-003  
  506.50  2.5523E-003  
  507.00  2.6644E-003  
  507.50  2.8060E-003  
  508.00  3.0974E-003  
  508.50  3.3436E-003  
  509.00  3.5649E-003  
  509.50  3.6517E-003  
  510.00  3.7905E-003  
  510.50  3.8890E-003  
  511.00  3.9976E-003  
  511.50  4.1375E-003  
  512.00  4.2732E-003  
  512.50  4.4810E-003  
  513.00  4.6621E-003  
  513.50  4.8336E-003  
  514.00  4.9471E-003  
  514.50  4.9364E-003  
  515.00  4.9475E-003  
  515.50  5.1551E-003  
  516.00  5.4284E-003  
  516.50  5.7559E-003  
  517.00  5.9419E-003  
  517.50  6.0091E-003  
  518.00  6.1364E-003  
  518.50  6.3274E-003  
  519.00  6.4063E-003  
  519.50  6.4603E-003  
  520.00  6.4371E-003  
  520.50  6.5388E-003  
  521.00  6.7523E-003  
  521.50  6.9841E-003  
  522.00  7.1264E-003  
  522.50  7.3037E-003  
  523.00  7.4960E-003  
  523.50  7.8861E-003  
  524.00  8.1266E-003  
  524.50  8.1419E-003  
  525.00  8.0395E-003  
  525.50  7.9237E-003  
  526.00  7.9141E-003  
  526.50  8.0680E-003  
  527.00  8.2546E-003  
  527.50  8.6194E-003  
  528.00  9.0153E-003  
  528.50  9.2710E-003  
  529.00  9.5214E-003  
  529.50  9.6098E-003  
  530.00  9.6984E-003  
  530.50  9.7515E-003  
  531.00  9.8119E-003  
  531.50  9.7803E-003  
  532.00  9.7173E-003  
  532.50  9.8096E-003  
  533.00  9.9823E-003  
  533.50  1.0140E-002  
  534.00  1.0369E-002  
  534.50  1.0487E-002  
  535.00  1.0609E-002  
  535.50  1.0793E-002  
  536.00  1.0820E-002  
  536.50  1.0893E-002  
  537.00  1.0891E-002  
  537.50  1.0876E-002  
  538.00  1.1047E-002  
  538.50  1.1247E-002  
  539.00  1.1434E-002  
  539.50  1.1605E-002  
  540.00  1.1777E-002  
  540.50  1.2064E-002  
  541.00  1.2354E-002  
  541.50  1.2563E-002  
  542.00  1.2667E-002  
  542.50  1.2654E-002  
  543.00  1.2664E-002  
  543.50  1.2824E-002  
  544.00  1.2970E-002  
  544.50  1.3284E-002  
  545.00  1.3500E-002  
  545.50  1.3782E-002  
  546.00  1.3975E-002  
  546.50  1.4070E-002  
  547.00  1.4176E-002  
  547.50  1.4245E-002  
  548.00  1.4455E-002  
  548.50  1.4747E-002  
  549.00  1.5069E-002  
  549.50  1.5397E-002  
  550.00  1.5560E-002  
  550.50  1.5649E-002  
  551.00  1.5704E-002  
  551.50  1.5799E-002  
  552.00  1.6128E-002  
  552.50  1.6378E-002  
  553.00  1.6667E-002  
  553.50  1.6868E-002  
  554.00  1.7218E-002  
  554.50  1.7610E-002  
  555.00  1.8014E-002  
  555.50  1.8278E-002  
  556.00  1.8381E-002  
  556.50  1.8612E-002  
  557.00  1.8919E-002  
  557.50  1.9288E-002  
  558.00  1.9571E-002  
  558.50  1.9771E-002  
  559.00  1.9957E-002  
  559.50  2.0250E-002  
  560.00  2.0729E-002  
  560.50  2.1214E-002  
  561.00  2.1648E-002  
  561.50  2.1984E-002  
  562.00  2.2277E-002  
  562.50  2.2784E-002  
  563.00  2.3154E-002  
  563.50  2.3477E-002  
  564.00  2.3785E-002  
  564.50  2.4227E-002  
  565.00  2.4861E-002  
  565.50  2.5512E-002  
  566.00  2.5932E-002  
  566.50  2.6133E-002  
  567.00  2.6313E-002  
  567.50  2.6745E-002  
  568.00  2.7307E-002  
  568.50  2.7831E-002  
  569.00  2.8258E-002  
  569.50  2.8660E-002  
  570.00  2.9244E-002  
  570.50  3.0024E-002  
  571.00  3.0721E-002  
  571.50  3.1272E-002  
  572.00  3.1558E-002  
  572.50  3.2060E-002  
  573.00  3.2713E-002  
  573.50  3.3410E-002  
  574.00  3.3995E-002  
  574.50  3.4715E-002  
  575.00  3.5350E-002  
  575.50  3.6037E-002  
  576.00  3.6607E-002  
  576.50  3.7338E-002  
  577.00  3.8047E-002  
  577.50  3.8733E-002  
  578.00  3.9375E-002  
  578.50  4.0206E-002  
  579.00  4.1035E-002  
  579.50  4.1899E-002  
  580.00  4.2836E-002  
  580.50  4.3574E-002  
  581.00  4.4294E-002  
  581.50  4.4764E-002  
  582.00  4.5334E-002  
  582.50  4.6121E-002  
  583.00  4.7197E-002  
  583.50  4.8255E-002  
  584.00  4.9224E-002  
  584.50  4.9939E-002  
  585.00  5.0750E-002  
  585.50  5.1671E-002  
  586.00  5.2515E-002  
  586.50  5.3334E-002  
  587.00  5.4110E-002  
  587.50  5.4973E-002  
  588.00  5.5557E-002  
  588.50  5.6529E-002  
  589.00  5.7454E-002  
  589.50  5.8573E-002  
  590.00  5.9474E-002  
  590.50  6.0336E-002  
  591.00  6.1329E-002  
  591.50  6.2219E-002  
  592.00  6.2972E-002  
  592.50  6.3759E-002  
  593.00  6.4538E-002  
  593.50  6.5349E-002  
  594.00  6.6193E-002  
  594.50  6.7172E-002  
  595.00  6.8085E-002  
  595.50  6.8806E-002  
  596.00  6.9469E-002  
  596.50  7.0301E-002  
  597.00  7.1312E-002  
  597.50  7.2120E-002  
  598.00  7.2799E-002  
  598.50  7.3206E-002  
  599.00  7.3864E-002  
  599.50  7.4413E-002  
  600.00  7.5246E-002  
  600.50  7.6111E-002  
  601.00  7.6876E-002  
  601.50  7.7468E-002  
  602.00  7.7812E-002  
  602.50  7.8461E-002  
  603.00  7.9171E-002  
  603.50  7.9920E-002  
  604.00  8.0472E-002  
  604.50  8.0771E-002  
  605.00  8.1152E-002  
  605.50  8.1714E-002  
  606.00  8.2161E-002  
  606.50  8.2808E-002  
  607.00  8.3389E-002  
  607.50  8.4196E-002  
  608.00  8.4652E-002  
  608.50  8.4904E-002  
  609.00  8.5279E-002  
  609.50  8.5688E-002  
  610.00  8.6088E-002  
  610.50  8.6312E-002  
  611.00  8.6341E-002  
  611.50  8.6469E-002  
  612.00  8.7124E-002  
  612.50  8.7374E-002  
  613.00  8.7611E-002  
  613.50  8.7408E-002  
  614.00  8.7586E-002  
  614.50  8.7740E-002  
  615.00  8.7366E-002  
  615.50  8.7453E-002  
  616.00  8.7668E-002  
  616.50  8.8010E-002  
  617.00  8.7966E-002  
  617.50  8.7816E-002  
  618.00  8.7728E-002  
  618.50  8.7919E-002  
  619.00  8.8045E-002  
  619.50  8.8262E-002  
  620.00  8.8106E-002  
  620.50  8.7722E-002  
  621.00  8.7387E-002  
  621.50  8.7162E-002  
  622.00  8.7230E-002  
  622.50  8.7249E-002  
  623.00  8.7165E-002  
  623.50  8.7098E-002  
  624.00  8.7014E-002  
  624.50  8.6980E-002  
  625.00  8.6640E-002  
  625.50  8.6147E-002  
  626.00  8.5886E-002  
  626.50  8.5594E-002  
  627.00  8.5243E-002  
  627.50  8.4597E-002  
  628.00  8.4080E-002  
  628.50  8.3908E-002  
  629.00  8.3578E-002  
  629.50  8.3603E-002  
  630.00  8.3426E-002  
  630.50  8.3104E-002  
  631.00  8.2885E-002  
  631.50  8.2562E-002  
  632.00  8.2366E-002  
  632.50  8.1721E-002  
  633.00  8.1329E-002  
  633.50  8.1126E-002  
  634.00  8.1184E-002  
  634.50  8.0929E-002  
  635.00  8.0407E-002  
  635.50  7.9543E-002  
  636.00  7.8835E-002  
  636.50  7.8597E-002  
  637.00  7.8403E-002  
  637.50  7.8180E-002  
  638.00  7.7515E-002  
  638.50  7.6940E-002  
  639.00  7.6366E-002  
  639.50  7.5903E-002  
  640.00  7.5206E-002  
  640.50  7.4502E-002  
  641.00  7.4022E-002  
  641.50  7.3557E-002  
  642.00  7.2926E-002  
  642.50  7.2197E-002  
  643.00  7.1798E-002  
  643.50  7.1419E-002  
  644.00  7.0763E-002  
  644.50  6.9719E-002  
  645.00  6.9215E-002  
  645.50  6.9062E-002  
  646.00  6.9058E-002  
  646.50  6.8795E-002  
  647.00  6.8246E-002  
  647.50  6.7689E-002  
  648.00  6.6918E-002  
  648.50  6.6356E-002  
  649.00  6.5889E-002  
  649.50  6.5231E-002  
  650.00  6.4638E-002  
  650.50  6.4161E-002  
  651.00  6.3637E-002  
  651.50  6.2793E-002  
  652.00  6.2033E-002  
  652.50  6.1311E-002  
  653.00  6.1010E-002  
  653.50  6.0581E-002  
  654.00  6.0298E-002  
  654.50  5.9668E-002  
  655.00  5.8582E-002  
  655.50  5.7588E-002  
  656.00  5.6802E-002  
  656.50  5.6525E-002  
  657.00  5.6116E-002  
  657.50  5.5714E-002  
  658.00  5.4991E-002  
  658.50  5.4270E-002  
  659.00  5.3510E-002  
  659.50  5.2896E-002  
  660.00  5.2693E-002  
  660.50  5.2440E-002  
  661.00  5.1921E-002  
  661.50  5.1091E-002  
  662.00  5.0134E-002  
  662.50  4.9498E-002  
  663.00  4.8857E-002  
  663.50  4.8418E-002  
  664.00  4.7816E-002  
  664.50  4.7033E-002  
  665.00  4.6283E-002  
  665.50  4.5635E-002  
  666.00  4.4986E-002  
  666.50  4.4465E-002  
  667.00  4.3885E-002  
  667.50  4.3751E-002  
  668.00  4.3551E-002  
  668.50  4.3362E-002  
  669.00  4.2775E-002  
  669.50  4.1657E-002  
  670.00  4.0704E-002  
  670.50  4.0275E-002  
  671.00  4.0175E-002  
  671.50  3.9988E-002  
  672.00  3.9458E-002  
  672.50  3.8808E-002  
  673.00  3.8131E-002  
  673.50  3.7386E-002  
  674.00  3.6792E-002  
  674.50  3.6289E-002  
  675.00  3.5784E-002  
  675.50  3.5434E-002  
  676.00  3.5112E-002  
  676.50  3.4503E-002  
  677.00  3.3935E-002  
  677.50  3.3382E-002  
  678.00  3.3175E-002  
  678.50  3.2615E-002  
  679.00  3.2090E-002  
  679.50  3.1605E-002  
  680.00  3.1441E-002  
  680.50  3.0971E-002  
  681.00  3.0420E-002  
  681.50  2.9533E-002  
  682.00  2.8820E-002  
  682.50  2.8476E-002  
  683.00  2.8433E-002  
  683.50  2.8376E-002  
  684.00  2.8176E-002  
  684.50  2.7884E-002  
  685.00  2.7483E-002  
  685.50  2.6881E-002  
  686.00  2.6203E-002  
  686.50  2.5801E-002  
  687.00  2.6036E-002  
  687.50  2.6151E-002  
  688.00  2.5660E-002  
  688.50  2.4563E-002  
  689.00  2.3695E-002  
  689.50  2.3353E-002  
  690.00  2.2876E-002  
  690.50  2.2558E-002  
  691.00  2.2314E-002  
  691.50  2.2284E-002  
  692.00  2.1882E-002  
  692.50  2.1665E-002  
  693.00  2.1664E-002  
  693.50  2.1387E-002  
  694.00  2.0849E-002  
  694.50  2.0386E-002  
  695.00  2.0238E-002  
  695.50  2.0392E-002  
  696.00  2.0191E-002  
  696.50  1.9828E-002  
  697.00  1.9015E-002  
  697.50  1.8569E-002  
  698.00  1.8506E-002  
  698.50  1.8356E-002  
  699.00  1.7937E-002  
  699.50  1.7811E-002  
  700.00  1.7333E-002  
  700.50  1.7184E-002  
  701.00  1.6868E-002  
  701.50  1.6749E-002  
  702.00  1.6331E-002  
  702.50  1.5884E-002  
  703.00  1.5357E-002  
  703.50  1.4639E-002  
  704.00  1.4350E-002  
  704.50  1.4178E-002  
  705.00  1.4131E-002  
  705.50  1.3980E-002  
  706.00  1.3927E-002  
  706.50  1.4084E-002  
  707.00  1.3676E-002  
  707.50  1.3221E-002  
  708.00  1.2686E-002  
  708.50  1.2851E-002  
  709.00  1.2786E-002  
  709.50  1.2565E-002  
  710.00  1.2241E-002  
  710.50  1.2020E-002  
  711.00  1.1779E-002  
  711.50  1.1704E-002  
  712.00  1.1769E-002  
  712.50  1.1657E-002  
  713.00  1.1366E-002  
  713.50  1.1294E-002  
  714.00  1.1189E-002  
  714.50  1.0987E-002  
  715.00  1.0281E-002  
  715.50  9.9147E-003  
  716.00  9.7262E-003  
  716.50  9.6716E-003  
  717.00  9.5474E-003  
  717.50  9.3677E-003  
  718.00  9.4080E-003  
  718.50  9.2008E-003  
  719.00  9.0524E-003  
  719.50  9.2493E-003  
  720.00  9.5076E-003  
  720.50  9.3371E-003  
  721.00  8.4177E-003  
  721.50  7.6198E-003  
  722.00  7.5145E-003  
  722.50  7.7967E-003  
  723.00  8.0503E-003  
  723.50  8.1809E-003  
  724.00  8.0487E-003  
  724.50  8.0680E-003  
  725.00  7.8773E-003  
  725.50  7.6133E-003  
  726.00  7.3909E-003  
  726.50  7.3006E-003  
  727.00  7.0983E-003  
  727.50  6.6918E-003  
  728.00  6.3900E-003  
  728.50  6.2773E-003  
  729.00  5.8973E-003  
  729.50  5.4538E-003  
  730.00  5.1474E-003  
  730.50  5.4823E-003  
  731.00  5.7334E-003  
  731.50  6.0907E-003  
  732.00  6.2288E-003  
  732.50  6.3297E-003  
  733.00  6.1642E-003  
  733.50  6.0520E-003  
  734.00  5.6922E-003  
  734.50  5.6701E-003  
  735.00  5.5868E-003  
  735.50  5.5432E-003  
  736.00  4.9918E-003  
  736.50  4.5719E-003  
  737.00  4.3350E-003  
  737.50  4.6462E-003  
  738.00  4.7260E-003  
  738.50  4.4614E-003  
  739.00  3.9210E-003  
  739.50  3.5909E-003  
  740.00  3.6565E-003  
  740.50  3.3212E-003  
  741.00  3.3425E-003  
  741.50  3.5236E-003  
  742.00  3.4767E-003  
  742.50  3.0108E-003  
  743.00  2.6934E-003  
  743.50  2.9299E-003  
  744.00  3.2834E-003  
  744.50  3.3561E-003  
  745.00  3.2189E-003  
  745.50  3.3504E-003  
  746.00  3.2480E-003  
  746.50  3.2822E-003  
  747.00  3.2004E-003  
  747.50  3.1575E-003  
  748.00  2.5974E-003  
  748.50  2.1795E-003  
  749.00  2.1626E-003  
  749.50  2.7053E-003  
  750.00  3.1521E-003  
  750.50  3.1172E-003  
  751.00  3.1075E-003  
  751.50  2.9221E-003  
  752.00  2.9203E-003  
  752.50  3.0099E-003  
  753.00  2.8562E-003  
  753.50  2.6672E-003  
  754.00  2.2223E-003  
  754.50  2.0975E-003  
  755.00  1.7611E-003  
  755.50  1.7428E-003  
  756.00  1.8583E-003  
  756.50  2.2577E-003  
  757.00  2.0091E-003  
  757.50  1.5643E-003  
  758.00  1.5235E-003  
  758.50  2.0043E-003  
  759.00  2.2085E-003  
  759.50  1.8721E-003  
  760.00  1.2954E-003  
  760.50  1.4797E-003  
  761.00  1.7356E-003  
  761.50  1.2911E-003  
  762.00  1.3654E-003  
  762.50  1.4681E-003  
  763.00  1.5668E-003  
  763.50  1.0465E-003  
  764.00  1.0512E-003  
  764.50  1.0097E-003  
  765.00  4.4466E-004  
  765.50  0.0000E+000  
  766.00  0.0000E+000  
  766.50  0.0000E+000  
  767.00  0.0000E+000  
  767.50  0.0000E+000  
  768.00  0.0000E+000  
  768.50  0.0000E+000  
  769.00  3.5921E-005  
  769.50  1.1798E-004  
  770.00  5.5666E-004  
  770.50  1.4464E-003  
  771.00  1.3688E-003  
  771.50  5.4573E-004  
  772.00  3.6079E-004  
  772.50  3.3658E-004  
  773.00  3.8384E-004  
  773.50  5.1957E-004  
  774.00  2.6710E-004  
  774.50  2.2910E-004  
  775.00  4.9223E-004  
  775.50  6.9113E-004  
  776.00  9.0893E-004  
  776.50  1.0833E-003  
  777.00  8.8308E-004  
  777.50  5.0013E-004  
  778.00  3.0720E-004  
  778.50  4.8658E-004  
  779.00  7.3806E-004  
  779.50  3.1056E-004  
  780.00  3.6483E-004  
  780.50  9.5437E-004  
  781.00  8.9294E-004  
  781.50  1.6902E-004  
  782.00  0.0000E+000  
  782.50  0.0000E+000  
  783.00  0.0000E+000  
  783.50  0.0000E+000  
  784.00  0.0000E+000  
  784.50  1.6819E-004  
  785.00  2.8506E-004  
  785.50  0.0000E+000  
  786.00  0.0000E+000  
  786.50  0.0000E+000  
  787.00  0.0000E+000  
  787.50  0.0000E+000  
  788.00  0.0000E+000  
  788.50  0.0000E+000  
  789.00  0.0000E+000  
  789.50  1.4304E-004  
  790.00  2.7760E-004  
  790.50  1.5095E-004  
  791.00  0.0000E+000  
  791.50  0.0000E+000  
  792.00  0.0000E+000  
  792.50  0.0000E+000  
  793.00  0.0000E+000  
  793.50  1.2416E-004  
  794.00  9.9655E-004  
  794.50  1.1219E-003  
  795.00  6.7364E-004  
  795.50  0.0000E+000  
  796.00  0.0000E+000  
  796.50  0.0000E+000  
  797.00  0.0000E+000  
  797.50  0.0000E+000  
  798.00  0.0000E+000  
  798.50  0.0000E+000  
  799.00  0.0000E+000  
  799.50  0.0000E+000  
  800.00  0.0000E+000  
  800.50  0.0000E+000  
  801.00  7.2401E-004  
  801.50  1.0170E-003  
  802.00  8.4814E-004  
  802.50  8.5254E-005  
  803.00  0.0000E+000  
  803.50  0.0000E+000  
  804.00  0.0000E+000  
  804.50  0.0000E+000  
  805.00  0.0000E+000  
  805.50  0.0000E+000  
  806.00  0.0000E+000  
  806.50  0.0000E+000  
  807.00  0.0000E+000  
  807.50  0.0000E+000  
  808.00  0.0000E+000  
  808.50  0.0000E+000  
  809.00  0.0000E+000  
  809.50  0.0000E+000  
  810.00  0.0000E+000  
  810.50  0.0000E+000  
  811.00  0.0000E+000  
  811.50  0.0000E+000  
  812.00  0.0000E+000  
  812.50  0.0000E+000  
  813.00  0.0000E+000  
  813.50  0.0000E+000  
  814.00  0.0000E+000  
  814.50  0.0000E+000  
  815.00  0.0000E+000  
  815.50  0.0000E+000  
  816.00  0.0000E+000  
  816.50  0.0000E+000  
  817.00  2.6786E-004  
  817.50  8.8948E-005  
  818.00  0.0000E+000  
  818.50  0.0000E+000  
  819.00  0.0000E+000  
  819.50  0.0000E+000  
  820.00  0.0000E+000  
  820.50  0.0000E+000  
  821.00  0.0000E+000  
  821.50  0.0000E+000  
  822.00  0.0000E+000  
  822.50  0.0000E+000  
  823.00  0.0000E+000  
  823.50  0.0000E+000  
  824.00  0.0000E+000  
  824.50  0.0000E+000  
  825.00  0.0000E+000  
  825.50  0.0000E+000  
  826.00  0.0000E+000  
  826.50  0.0000E+000  
  827.00  0.0000E+000  
  827.50  0.0000E+000  
  828.00  0.0000E+000  
  828.50  0.0000E+000  
  829.00  0.0000E+000  
  829.50  0.0000E+000  
  830.00  0.0000E+000  
  830.50  0.0000E+000  
  831.00  0.0000E+000  
  831.50  0.0000E+000  
  832.00  0.0000E+000  
  832.50  0.0000E+000  
  833.00  0.0000E+000  
  833.50  0.0000E+000  
  834.00  0.0000E+000  
  834.50  0.0000E+000  
  835.00  0.0000E+000  
  835.50  0.0000E+000  
  836.00  0.0000E+000  
  836.50  0.0000E+000  
  837.00  0.0000E+000  
  837.50  0.0000E+000  
  838.00  0.0000E+000  
  838.50  0.0000E+000  
  839.00  0.0000E+000  
  839.50  0.0000E+000  
  840.00  0.0000E+000  
  840.50  0.0000E+000  
  841.00  0.0000E+000  
  841.50  0.0000E+000  
  842.00  0.0000E+000  
  842.50  0.0000E+000  
  843.00  0.0000E+000  
  843.50  0.0000E+000  
  844.00  0.0000E+000  
  844.50  0.0000E+000  
  845.00  0.0000E+000  
  845.50  0.0000E+000  
  846.00  0.0000E+000  
  846.50  0.0000E+000  
  847.00  0.0000E+000  
  847.50  0.0000E+000  
  848.00  0.0000E+000  
  848.50  0.0000E+000  
  849.00  0.0000E+000  
  849.50  0.0000E+000  
  850.00  0.0000E+000  
  850.50  0.0000E+000  
  851.00  0.0000E+000  
  851.50  0.0000E+000  
  852.00  0.0000E+000  
  852.50  2.9673E-005  
  853.00  4.4164E-004  
  853.50  0.0000E+000  
  854.00  0.0000E+000  
  854.50  0.0000E+000  
  855.00  0.0000E+000  
  855.50  0.0000E+000  
  856.00  0.0000E+000  
  856.50  0.0000E+000  
  857.00  0.0000E+000  
  857.50  0.0000E+000  
  858.00  0.0000E+000  
  858.50  0.0000E+000  
  859.00  0.0000E+000  
  859.50  0.0000E+000  
  860.00  0.0000E+000  
  860.50  0.0000E+000  
  861.00  0.0000E+000  
  861.50  0.0000E+000  
  862.00  0.0000E+000  
  862.50  0.0000E+000  
  863.00  0.0000E+000  
  863.50  0.0000E+000  
  864.00  0.0000E+000  
  864.50  0.0000E+000  
  865.00  0.0000E+000  
  865.50  0.0000E+000  
  866.00  0.0000E+000  
  866.50  0.0000E+000  
  867.00  0.0000E+000  
  867.50  0.0000E+000  
  868.00  0.0000E+000  
  868.50  0.0000E+000  
  869.00  0.0000E+000  
  869.50  0.0000E+000  
  870.00  0.0000E+000  
  870.50  0.0000E+000  
  871.00  0.0000E+000  
  871.50  0.0000E+000  
  872.00  0.0000E+000  
  872.50  0.0000E+000  
  873.00  0.0000E+000  
  873.50  2.2267E-004  
  874.00  2.1713E-003  
  874.50  9.8829E-005  
  875.00  0.0000E+000  
  875.50  0.0000E+000  
  876.00  0.0000E+000  
  876.50  0.0000E+000  
  877.00  0.0000E+000  
  877.50  0.0000E+000  
  878.00  0.0000E+000  
  878.50  0.0000E+000  
  879.00  0.0000E+000  
  879.50  0.0000E+000  
  880.00  0.0000E+000  
  880.50  0.0000E+000  
  881.00  0.0000E+000  
  881.50  0.0000E+000  
  882.00  0.0000E+000  
  882.50  0.0000E+000  
  883.00  0.0000E+000  
  883.50  0.0000E+000  
  884.00  0.0000E+000  
  884.50  0.0000E+000  
  885.00  0.0000E+000  
  885.50  0.0000E+000  
  886.00  0.0000E+000  
  886.50  0.0000E+000  
  887.00  0.0000E+000  
  887.50  0.0000E+000  
  888.00  0.0000E+000  
  888.50  0.0000E+000  
  889.00  0.0000E+000  
  889.50  0.0000E+000  
  890.00  0.0000E+000  
  890.50  0.0000E+000  
  891.00  0.0000E+000  
  891.50  0.0000E+000  
  892.00  0.0000E+000  
  892.50  0.0000E+000  
  893.00  0.0000E+000  
  893.50  0.0000E+000  
  894.00  0.0000E+000  
  894.50  0.0000E+000  
  895.00  0.0000E+000  
  895.50  0.0000E+000  
  896.00  0.0000E+000  
  896.50  0.0000E+000  
  897.00  0.0000E+000  
  897.50  0.0000E+000  
  898.00  0.0000E+000  
  898.50  0.0000E+000  
  899.00  0.0000E+000  
  899.50  0.0000E+000  
